#, Frequency (Hz), Amplitude (Vpp), Gain (dB), Phase (°)
1,100.0,0.0500,-64.07,-0.18
2,101.2,0.0500,-63.42,4.09
3,102.3,0.0500,-62.82,-3.12
4,103.5,0.0500,-63.62,-6.78
5,104.7,0.0500,-63.64,1.43
6,105.9,0.0500,-64.01,-0.77
7,107.2,0.0500,-64.47,8.23
8,108.4,0.0500,-63.43,5.24
9,109.6,0.0500,-63.92,3.52
10,110.9,0.0500,-64.04,-2.96
11,112.2,0.0500,-63.39,-2.81
12,113.5,0.0500,-62.67,-4.08
13,114.8,0.0500,-63.32,5.48
14,116.1,0.0500,-63.57,2.21
15,117.5,0.0500,-64.47,3.01
16,118.9,0.0500,-63.63,-2.20
17,120.2,0.0500,-63.78,-0.45
18,121.6,0.0500,-64.08,3.32
19,123.0,0.0500,-64.96,-5.05
20,124.5,0.0500,-64.56,-2.51
21,125.9,0.0500,-63.72,4.88
22,127.4,0.0500,-64.81,2.24
23,128.8,0.0500,-62.57,6.16
24,130.3,0.0500,-64.17,-9.55
25,131.8,0.0500,-63.53,-3.99
26,133.4,0.0500,-63.42,4.30
27,134.9,0.0500,-63.91,2.45
28,136.5,0.0500,-65.23,5.40
29,138.0,0.0500,-63.49,1.39
30,139.6,0.0500,-63.38,0.60
31,141.3,0.0500,-63.69,2.84
32,142.9,0.0500,-63.33,8.27
33,144.5,0.0500,-63.22,-5.18
34,146.2,0.0500,-62.99,-1.13
35,147.9,0.0500,-64.84,-4.79
36,149.6,0.0500,-63.54,2.81
37,151.4,0.0500,-63.26,2.36
38,153.1,0.0500,-64.05,-5.10
39,154.9,0.0500,-63.30,-5.51
40,156.7,0.0500,-64.00,6.49
41,158.5,0.0500,-63.48,0.49
42,160.3,0.0500,-63.53,1.46
43,162.2,0.0500,-63.91,1.86
44,164.1,0.0500,-63.79,2.77
45,166.0,0.0500,-64.38,5.69
46,167.9,0.0500,-63.70,-3.89
47,169.8,0.0500,-64.45,4.06
48,171.8,0.0500,-63.52,-3.68
49,173.8,0.0500,-63.96,-1.33
50,175.8,0.0500,-63.16,5.30
51,177.8,0.0500,-63.46,2.24
52,179.9,0.0500,-63.57,4.73
53,182.0,0.0500,-62.24,2.58
54,184.1,0.0500,-62.94,-2.32
55,186.2,0.0500,-63.38,7.50
56,188.4,0.0500,-63.89,5.56
57,190.5,0.0500,-64.14,2.96
58,192.8,0.0500,-63.86,5.83
59,195.0,0.0500,-63.72,1.52
60,197.2,0.0500,-63.07,3.26
61,199.5,0.0500,-62.94,4.57
62,201.8,0.0500,-64.61,2.91
63,204.2,0.0500,-63.29,-1.04
64,206.5,0.0500,-63.66,-3.60
65,208.9,0.0500,-64.25,9.47
66,211.3,0.0500,-64.22,-1.34
67,213.8,0.0500,-63.75,3.70
68,216.3,0.0500,-63.70,5.15
69,218.8,0.0500,-63.80,5.89
70,221.3,0.0500,-63.98,0.64
71,223.9,0.0500,-63.27,1.65
72,226.5,0.0500,-63.41,5.26
73,229.1,0.0500,-63.37,7.57
74,231.7,0.0500,-62.57,-0.05
75,234.4,0.0500,-63.05,2.17
76,237.1,0.0500,-63.69,-1.83
77,239.9,0.0500,-63.32,6.93
78,242.7,0.0500,-63.97,4.62
79,245.5,0.0500,-63.83,3.71
80,248.3,0.0500,-63.51,9.48
81,251.2,0.0500,-63.00,7.17
82,254.1,0.0500,-64.27,0.90
83,257.0,0.0500,-64.61,5.43
84,260.0,0.0500,-63.98,2.06
85,263.0,0.0500,-64.16,5.61
86,266.1,0.0500,-62.65,2.14
87,269.2,0.0500,-63.42,6.38
88,272.3,0.0500,-64.37,6.75
89,275.4,0.0500,-63.24,5.29
90,278.6,0.0500,-63.96,2.70
91,281.8,0.0500,-63.84,2.16
92,285.1,0.0500,-63.80,3.42
93,288.4,0.0500,-63.97,5.22
94,291.7,0.0500,-62.96,2.63
95,295.1,0.0500,-62.52,8.06
96,298.5,0.0500,-63.59,6.28
97,302.0,0.0500,-64.83,8.23
98,305.5,0.0500,-63.77,7.21
99,309.0,0.0500,-63.36,3.55
100,312.6,0.0500,-64.22,1.78
101,316.2,0.0500,-63.74,6.10
102,319.9,0.0500,-63.77,2.80
103,323.6,0.0500,-63.80,7.64
104,327.3,0.0500,-63.60,4.54
105,331.1,0.0500,-63.23,8.40
106,335.0,0.0500,-63.86,2.88
107,338.8,0.0500,-63.34,2.96
108,342.8,0.0500,-62.64,6.06
109,346.7,0.0500,-63.40,3.69
110,350.8,0.0500,-64.26,7.43
111,354.8,0.0500,-64.00,10.15
112,358.9,0.0500,-63.67,4.52
113,363.1,0.0500,-63.25,6.47
114,367.3,0.0500,-64.33,8.19
115,371.5,0.0500,-63.25,5.37
116,375.8,0.0500,-63.42,10.00
117,380.2,0.0500,-63.53,6.06
118,384.6,0.0500,-63.38,6.93
119,389.0,0.0500,-63.59,8.17
120,393.6,0.0500,-64.35,1.05
121,398.1,0.0500,-64.86,1.12
122,402.7,0.0500,-63.67,7.87
123,407.4,0.0500,-63.65,-1.05
124,412.1,0.0500,-63.74,7.33
125,416.9,0.0500,-63.72,5.88
126,421.7,0.0500,-63.60,5.59
127,426.6,0.0500,-63.75,8.93
128,431.5,0.0500,-64.75,8.72
129,436.5,0.0500,-64.33,8.47
130,441.6,0.0500,-63.63,11.39
131,446.7,0.0500,-63.34,9.56
132,451.9,0.0500,-62.86,9.15
133,457.1,0.0500,-63.28,7.69
134,462.4,0.0500,-63.51,3.36
135,467.7,0.0500,-62.80,14.39
136,473.2,0.0500,-64.11,6.71
137,478.6,0.0500,-64.21,5.84
138,484.2,0.0500,-64.22,11.83
139,489.8,0.0500,-63.76,10.34
140,495.5,0.0500,-63.36,8.78
141,501.2,0.0500,-62.63,8.19
142,507.0,0.0500,-63.95,5.22
143,512.9,0.0500,-64.10,7.93
144,518.8,0.0500,-63.45,8.35
145,524.8,0.0500,-63.72,7.59
146,530.9,0.0500,-63.60,6.81
147,537.0,0.0500,-63.59,5.07
148,543.3,0.0500,-63.40,8.86
149,549.5,0.0500,-63.42,5.70
150,555.9,0.0500,-63.48,10.23
151,562.3,0.0500,-63.82,6.25
152,568.9,0.0500,-63.68,6.27
153,575.4,0.0500,-63.57,6.97
154,582.1,0.0500,-63.43,11.48
155,588.8,0.0500,-63.75,11.26
156,595.7,0.0500,-63.72,10.94
157,602.6,0.0500,-64.25,7.17
158,609.5,0.0500,-63.19,9.21
159,616.6,0.0500,-63.56,8.35
160,623.7,0.0500,-63.54,12.67
161,631.0,0.0500,-63.97,14.10
162,638.3,0.0500,-63.97,15.06
163,645.7,0.0500,-63.52,12.40
164,653.1,0.0500,-63.74,9.43
165,660.7,0.0500,-63.05,12.48
166,668.3,0.0500,-63.27,14.82
167,676.1,0.0500,-63.45,5.61
168,683.9,0.0500,-64.14,7.49
169,691.8,0.0500,-63.93,14.67
170,699.8,0.0500,-63.76,11.63
171,707.9,0.0500,-63.18,7.07
172,716.1,0.0500,-63.62,12.13
173,724.4,0.0500,-64.12,16.11
174,732.8,0.0500,-63.74,12.32
175,741.3,0.0500,-63.04,10.11
176,749.9,0.0500,-63.71,12.23
177,758.6,0.0500,-63.16,14.89
178,767.4,0.0500,-64.28,21.33
179,776.2,0.0500,-62.90,17.60
180,785.2,0.0500,-62.90,10.85
181,794.3,0.0500,-62.90,12.32
182,803.5,0.0500,-63.08,14.35
183,812.8,0.0500,-63.56,15.75
184,822.2,0.0500,-63.68,17.95
185,831.8,0.0500,-63.68,13.62
186,841.4,0.0500,-63.57,13.60
187,851.1,0.0500,-63.02,11.41
188,861.0,0.0500,-62.93,17.89
189,871.0,0.0500,-63.46,9.31
190,881.0,0.0500,-63.35,11.24
191,891.3,0.0500,-63.93,13.19
192,901.6,0.0500,-63.37,20.70
193,912.0,0.0500,-64.03,13.23
194,922.6,0.0500,-63.34,17.33
195,933.3,0.0500,-63.02,15.07
196,944.1,0.0500,-62.83,17.53
197,955.0,0.0500,-63.64,15.89
198,966.1,0.0500,-62.83,11.77
199,977.2,0.0500,-63.38,13.54
200,988.6,0.0500,-63.27,20.06
201,1000.0,0.0500,-63.04,17.25
202,1011.6,0.0500,-63.97,21.43
203,1023.3,0.0500,-62.99,16.59
204,1035.1,0.0500,-63.50,20.93
205,1047.1,0.0500,-63.01,18.46
206,1059.3,0.0500,-62.70,21.82
207,1071.5,0.0500,-62.91,19.81
208,1083.9,0.0500,-62.60,20.27
209,1096.5,0.0500,-63.19,17.97
210,1109.2,0.0500,-63.34,17.16
211,1122.0,0.0500,-63.33,19.20
212,1135.0,0.0500,-62.86,18.78
213,1148.2,0.0500,-62.30,20.12
214,1161.4,0.0500,-62.88,17.22
215,1174.9,0.0500,-62.10,19.80
216,1188.5,0.0500,-63.00,15.05
217,1202.3,0.0500,-63.11,17.43
218,1216.2,0.0500,-63.39,21.25
219,1230.3,0.0500,-63.03,21.22
220,1244.5,0.0500,-62.81,18.74
221,1258.9,0.0500,-63.13,18.18
222,1273.5,0.0500,-62.62,19.64
223,1288.2,0.0500,-62.36,22.82
224,1303.2,0.0500,-62.89,23.27
225,1318.3,0.0500,-62.71,23.26
226,1333.5,0.0500,-62.88,21.90
227,1349.0,0.0500,-62.75,23.01
228,1364.6,0.0500,-63.00,22.39
229,1380.4,0.0500,-62.76,25.37
230,1396.4,0.0500,-62.09,22.19
231,1412.5,0.0500,-63.34,21.88
232,1428.9,0.0500,-62.58,21.77
233,1445.4,0.0500,-62.97,21.80
234,1462.2,0.0500,-62.49,22.29
235,1479.1,0.0500,-62.40,24.17
236,1496.2,0.0500,-62.42,24.07
237,1513.6,0.0500,-62.15,29.15
238,1531.1,0.0500,-62.92,22.51
239,1548.8,0.0500,-62.42,24.84
240,1566.8,0.0500,-62.13,25.21
241,1584.9,0.0500,-62.85,25.60
242,1603.2,0.0500,-62.22,29.15
243,1621.8,0.0500,-62.33,28.79
244,1640.6,0.0500,-62.57,24.45
245,1659.6,0.0500,-62.36,24.81
246,1678.8,0.0500,-62.83,28.03
247,1698.2,0.0500,-62.83,25.94
248,1717.9,0.0500,-62.25,30.30
249,1737.8,0.0500,-63.32,28.78
250,1757.9,0.0500,-63.41,21.03
251,1778.3,0.0500,-62.49,26.53
252,1798.9,0.0500,-62.78,29.81
253,1819.7,0.0500,-62.42,25.87
254,1840.8,0.0500,-61.83,29.37
255,1862.1,0.0500,-62.60,31.19
256,1883.6,0.0500,-62.49,28.51
257,1905.5,0.0500,-62.66,28.51
258,1927.5,0.0500,-62.67,24.74
259,1949.8,0.0500,-61.62,27.53
260,1972.4,0.0500,-63.19,35.12
261,1995.3,0.0500,-61.91,31.96
262,2018.4,0.0500,-61.70,37.27
263,2041.7,0.0500,-61.73,33.93
264,2065.4,0.0500,-62.17,27.37
265,2089.3,0.0500,-62.55,29.57
266,2113.5,0.0500,-61.83,30.83
267,2138.0,0.0500,-60.97,33.35
268,2162.7,0.0500,-61.83,33.45
269,2187.8,0.0500,-61.81,33.76
270,2213.1,0.0500,-61.92,33.44
271,2238.7,0.0500,-62.20,38.31
272,2264.6,0.0500,-61.76,35.51
273,2290.9,0.0500,-61.95,29.91
274,2317.4,0.0500,-62.00,30.23
275,2344.2,0.0500,-61.83,35.39
276,2371.4,0.0500,-61.19,33.46
277,2398.8,0.0500,-62.14,35.14
278,2426.6,0.0500,-61.84,37.11
279,2454.7,0.0500,-61.67,38.79
280,2483.1,0.0500,-62.28,36.91
281,2511.9,0.0500,-61.20,36.48
282,2541.0,0.0500,-61.26,39.16
283,2570.4,0.0500,-61.23,33.21
284,2600.2,0.0500,-61.06,39.73
285,2630.3,0.0500,-61.87,38.94
286,2660.7,0.0500,-61.90,37.73
287,2691.5,0.0500,-61.67,37.53
288,2722.7,0.0500,-60.74,40.06
289,2754.2,0.0500,-61.13,39.72
290,2786.1,0.0500,-61.31,41.29
291,2818.4,0.0500,-61.37,40.89
292,2851.0,0.0500,-60.94,40.93
293,2884.0,0.0500,-61.58,38.47
294,2917.4,0.0500,-61.40,36.92
295,2951.2,0.0500,-61.20,44.04
296,2985.4,0.0500,-60.94,44.84
297,3020.0,0.0500,-60.81,41.52
298,3054.9,0.0500,-60.87,41.19
299,3090.3,0.0500,-60.95,42.03
300,3126.1,0.0500,-60.37,44.25
301,3162.3,0.0500,-60.77,41.45
302,3198.9,0.0500,-60.33,44.24
303,3235.9,0.0500,-60.77,42.94
304,3273.4,0.0500,-60.66,40.82
305,3311.3,0.0500,-60.83,42.96
306,3349.7,0.0500,-60.54,44.45
307,3388.4,0.0500,-61.04,44.74
308,3427.7,0.0500,-60.37,50.03
309,3467.4,0.0500,-60.59,44.11
310,3507.5,0.0500,-60.06,49.06
311,3548.1,0.0500,-60.08,46.90
312,3589.2,0.0500,-60.59,45.94
313,3630.8,0.0500,-59.82,49.07
314,3672.8,0.0500,-60.00,51.16
315,3715.4,0.0500,-59.87,45.86
316,3758.4,0.0500,-59.93,49.49
317,3801.9,0.0500,-60.05,49.04
318,3845.9,0.0500,-60.21,51.66
319,3890.5,0.0500,-60.13,46.32
320,3935.5,0.0500,-59.88,47.84
321,3981.1,0.0500,-59.84,49.02
322,4027.2,0.0500,-59.93,49.84
323,4073.8,0.0500,-60.17,49.72
324,4121.0,0.0500,-59.59,48.55
325,4168.7,0.0500,-59.67,50.42
326,4217.0,0.0500,-59.44,54.96
327,4265.8,0.0500,-59.85,53.20
328,4315.2,0.0500,-59.09,52.74
329,4365.2,0.0500,-59.01,53.26
330,4415.7,0.0500,-58.56,53.28
331,4466.8,0.0500,-58.86,52.26
332,4518.6,0.0500,-59.15,51.66
333,4570.9,0.0500,-58.72,53.28
334,4623.8,0.0500,-59.15,52.96
335,4677.4,0.0500,-59.12,53.63
336,4731.5,0.0500,-58.92,55.06
337,4786.3,0.0500,-58.70,55.28
338,4841.7,0.0500,-59.17,54.84
339,4897.8,0.0500,-58.40,56.32
340,4954.5,0.0500,-58.56,58.07
341,5011.9,0.0500,-58.45,54.50
342,5069.9,0.0500,-57.99,55.34
343,5128.6,0.0500,-58.10,57.82
344,5188.0,0.0500,-58.32,56.25
345,5248.1,0.0500,-58.28,57.66
346,5308.8,0.0500,-57.89,58.03
347,5370.3,0.0500,-57.97,58.25
348,5432.5,0.0500,-57.92,57.60
349,5495.4,0.0500,-58.01,58.88
350,5559.0,0.0500,-58.02,59.75
351,5623.4,0.0500,-57.57,57.51
352,5688.5,0.0500,-57.69,57.55
353,5754.4,0.0500,-57.47,60.06
354,5821.0,0.0500,-57.65,61.02
355,5888.4,0.0500,-57.34,58.75
356,5956.6,0.0500,-57.53,59.63
357,6025.6,0.0500,-57.45,59.23
358,6095.4,0.0500,-57.21,61.54
359,6166.0,0.0500,-57.10,60.87
360,6237.3,0.0500,-56.89,61.36
361,6309.6,0.0500,-57.12,61.27
362,6382.6,0.0500,-56.78,61.79
363,6456.5,0.0500,-56.67,62.86
364,6531.3,0.0500,-56.45,61.97
365,6606.9,0.0500,-56.48,63.91
366,6683.4,0.0500,-56.72,64.20
367,6760.8,0.0500,-56.50,62.98
368,6839.1,0.0500,-56.59,63.24
369,6918.3,0.0500,-56.43,63.31
370,6998.4,0.0500,-56.24,64.21
371,7079.5,0.0500,-56.51,67.11
372,7161.4,0.0500,-55.81,63.30
373,7244.4,0.0500,-55.98,65.30
374,7328.2,0.0500,-55.65,63.93
375,7413.1,0.0500,-55.78,65.15
376,7498.9,0.0500,-55.62,65.68
377,7585.8,0.0500,-55.51,66.78
378,7673.6,0.0500,-55.54,64.71
379,7762.5,0.0500,-55.72,66.53
380,7852.4,0.0500,-55.60,65.21
381,7943.3,0.0500,-55.55,70.51
382,8035.3,0.0500,-55.40,68.48
383,8128.3,0.0500,-55.09,66.11
384,8222.4,0.0500,-55.31,67.52
385,8317.6,0.0500,-54.96,70.08
386,8414.0,0.0500,-54.72,68.67
387,8511.4,0.0500,-54.69,68.71
388,8609.9,0.0500,-54.73,67.99
389,8709.6,0.0500,-54.67,68.09
390,8810.5,0.0500,-54.45,67.32
391,8912.5,0.0500,-54.31,68.98
392,9015.7,0.0500,-54.12,70.00
393,9120.1,0.0500,-54.37,68.39
394,9225.7,0.0500,-54.20,70.52
395,9332.5,0.0500,-54.06,69.80
396,9440.6,0.0500,-54.07,69.04
397,9549.9,0.0500,-53.92,70.39
398,9660.5,0.0500,-53.77,70.00
399,9772.4,0.0500,-53.69,70.90
400,9885.5,0.0500,-53.74,71.76
401,10000.0,0.0500,-53.62,71.07
402,10115.8,0.0500,-53.57,71.33
403,10232.9,0.0500,-53.65,70.92
404,10351.4,0.0500,-53.03,71.61
405,10471.3,0.0500,-53.17,73.19
406,10592.5,0.0500,-53.13,72.12
407,10715.2,0.0500,-52.91,73.21
408,10839.3,0.0500,-52.86,73.52
409,10964.8,0.0500,-52.78,72.02
410,11091.7,0.0500,-52.89,73.46
411,11220.2,0.0500,-52.75,71.05
412,11350.1,0.0500,-52.65,73.43
413,11481.5,0.0500,-52.43,74.91
414,11614.5,0.0500,-52.21,74.72
415,11749.0,0.0500,-52.54,73.06
416,11885.0,0.0500,-52.32,75.46
417,12022.6,0.0500,-52.23,74.32
418,12161.9,0.0500,-51.97,73.08
419,12302.7,0.0500,-51.93,74.38
420,12445.1,0.0500,-51.89,73.34
421,12589.3,0.0500,-51.89,73.76
422,12735.0,0.0500,-51.49,74.81
423,12882.5,0.0500,-51.64,75.85
424,13031.7,0.0500,-51.54,74.46
425,13182.6,0.0500,-51.61,75.60
426,13335.2,0.0500,-51.30,76.31
427,13489.6,0.0500,-51.17,75.13
428,13645.8,0.0500,-50.98,75.44
429,13803.8,0.0500,-50.92,75.08
430,13963.7,0.0500,-50.93,76.46
431,14125.4,0.0500,-50.63,76.28
432,14288.9,0.0500,-50.63,76.51
433,14454.4,0.0500,-50.45,77.25
434,14621.8,0.0500,-50.39,76.97
435,14791.1,0.0500,-50.41,75.23
436,14962.4,0.0500,-50.24,76.42
437,15135.6,0.0500,-50.26,77.09
438,15310.9,0.0500,-50.14,76.75
439,15488.2,0.0500,-50.05,77.23
440,15667.5,0.0500,-49.92,77.64
441,15848.9,0.0500,-49.97,78.14
442,16032.5,0.0500,-49.86,77.93
443,16218.1,0.0500,-49.59,78.02
444,16405.9,0.0500,-49.56,78.97
445,16595.9,0.0500,-49.53,77.72
446,16788.0,0.0500,-49.32,78.56
447,16982.4,0.0500,-49.31,78.79
448,17179.1,0.0500,-49.11,78.97
449,17378.0,0.0500,-49.16,78.76
450,17579.2,0.0500,-48.95,78.93
451,17782.8,0.0500,-48.86,78.54
452,17988.7,0.0500,-48.79,78.39
453,18197.0,0.0500,-48.62,79.29
454,18407.7,0.0500,-48.62,78.69
455,18620.9,0.0500,-48.29,79.84
456,18836.5,0.0500,-48.57,79.63
457,19054.6,0.0500,-48.34,78.74
458,19275.2,0.0500,-48.16,78.58
459,19498.4,0.0500,-48.15,79.61
460,19724.2,0.0500,-48.09,79.41
461,19952.6,0.0500,-47.83,79.46
462,20183.7,0.0500,-47.72,79.88
463,20417.4,0.0500,-47.69,80.41
464,20653.8,0.0500,-47.52,80.18
465,20893.0,0.0500,-47.65,80.86
466,21134.9,0.0500,-47.40,80.86
467,21379.6,0.0500,-47.20,79.92
468,21627.2,0.0500,-47.19,80.43
469,21877.6,0.0500,-47.06,81.29
470,22130.9,0.0500,-47.04,81.03
471,22387.2,0.0500,-46.97,81.53
472,22646.4,0.0500,-46.88,80.68
473,22908.7,0.0500,-46.95,81.18
474,23173.9,0.0500,-46.59,81.46
475,23442.3,0.0500,-46.58,81.15
476,23713.7,0.0500,-46.58,80.54
477,23988.3,0.0500,-46.35,80.92
478,24266.1,0.0500,-46.29,81.21
479,24547.1,0.0500,-46.10,81.24
480,24831.3,0.0500,-46.00,81.53
481,25118.9,0.0500,-45.98,81.75
482,25409.7,0.0500,-45.83,82.60
483,25704.0,0.0500,-45.79,82.79
484,26001.6,0.0500,-45.65,82.60
485,26302.7,0.0500,-45.57,82.37
486,26607.3,0.0500,-45.42,82.43
487,26915.3,0.0500,-45.40,82.45
488,27227.0,0.0500,-45.31,82.64
489,27542.3,0.0500,-45.14,82.55
490,27861.2,0.0500,-44.96,82.62
491,28183.8,0.0500,-44.97,82.55
492,28510.2,0.0500,-44.79,82.40
493,28840.3,0.0500,-44.67,82.44
494,29174.3,0.0500,-44.69,82.87
495,29512.1,0.0500,-44.46,82.17
496,29853.8,0.0500,-44.38,82.94
497,30199.5,0.0500,-44.47,83.01
498,30549.2,0.0500,-44.20,83.40
499,30903.0,0.0500,-44.11,83.40
500,31260.8,0.0500,-44.01,83.47
501,31622.8,0.0500,-43.96,83.55
502,31989.0,0.0500,-43.76,82.48
503,32359.4,0.0500,-43.71,83.68
504,32734.1,0.0500,-43.56,84.41
505,33113.1,0.0500,-43.63,83.93
506,33496.5,0.0500,-43.41,84.03
507,33884.4,0.0500,-43.43,83.73
508,34276.8,0.0500,-43.32,85.06
509,34673.7,0.0500,-43.07,85.10
510,35075.2,0.0500,-43.12,84.40
511,35481.3,0.0500,-42.92,81.74
512,35892.2,0.0500,-42.80,83.93
513,36307.8,0.0500,-42.62,83.88
514,36728.2,0.0500,-42.65,84.39
515,37153.5,0.0500,-42.56,82.79
516,37583.7,0.0500,-42.34,84.85
517,38018.9,0.0500,-42.34,84.81
518,38459.2,0.0500,-42.00,84.47
519,38904.5,0.0500,-42.22,83.92
520,39355.0,0.0500,-42.11,84.85
521,39810.7,0.0500,-41.94,84.40
522,40271.7,0.0500,-41.88,86.33
523,40738.0,0.0500,-41.58,85.67
524,41209.8,0.0500,-41.70,84.73
525,41686.9,0.0500,-41.62,84.15
526,42169.7,0.0500,-41.39,85.11
527,42658.0,0.0500,-41.26,84.55
528,43151.9,0.0500,-41.10,84.61
529,43651.6,0.0500,-41.06,86.41
530,44157.0,0.0500,-40.91,84.82
531,44668.4,0.0500,-40.74,85.26
532,45185.6,0.0500,-40.74,85.99
533,45708.8,0.0500,-40.63,84.95
534,46238.1,0.0500,-40.76,85.13
535,46773.5,0.0500,-40.58,85.10
536,47315.1,0.0500,-40.42,85.12
537,47863.0,0.0500,-40.16,85.70
538,48417.2,0.0500,-39.93,85.37
539,48977.9,0.0500,-39.88,86.29
540,49545.0,0.0500,-39.86,84.27
541,50118.7,0.0500,-39.73,85.61
542,50699.1,0.0500,-39.63,87.23
543,51286.1,0.0500,-39.43,85.67
544,51880.0,0.0500,-39.45,85.40
545,52480.7,0.0500,-39.46,84.56
546,53088.4,0.0500,-39.23,84.15
547,53703.2,0.0500,-39.17,86.03
548,54325.0,0.0500,-38.87,83.87
549,54954.1,0.0500,-39.12,84.39
550,55590.4,0.0500,-39.21,85.25
551,56234.1,0.0500,-38.71,85.57
552,56885.3,0.0500,-38.48,84.57
553,57544.0,0.0500,-38.93,85.03
554,58210.3,0.0500,-38.47,85.52
555,58884.4,0.0500,-38.37,85.42
556,59566.2,0.0500,-38.39,83.54
557,60256.0,0.0500,-38.42,84.64
558,60953.7,0.0500,-38.08,84.33
559,61659.5,0.0500,-38.12,84.27
560,62373.5,0.0500,-37.74,84.43
561,63095.7,0.0500,-37.98,86.25
562,63826.3,0.0500,-37.66,85.68
563,64565.4,0.0500,-37.60,86.41
564,65313.1,0.0500,-37.62,83.95
565,66069.3,0.0500,-37.33,84.54
566,66834.4,0.0500,-37.43,85.45
567,67608.3,0.0500,-37.25,85.03
568,68391.2,0.0500,-37.14,84.51
569,69183.1,0.0500,-37.10,82.71
570,69984.2,0.0500,-36.82,84.45
571,70794.6,0.0500,-36.56,85.49
572,71614.3,0.0500,-36.78,85.72
573,72443.6,0.0500,-36.61,86.16
574,73282.5,0.0500,-36.49,85.68
575,74131.0,0.0500,-36.44,84.22
576,74989.4,0.0500,-36.27,84.05
577,75857.8,0.0500,-36.27,85.17
578,76736.1,0.0500,-36.12,85.01
579,77624.7,0.0500,-36.09,84.91
580,78523.6,0.0500,-35.93,84.90
581,79432.8,0.0500,-35.84,85.43
582,80352.6,0.0500,-35.61,85.35
583,81283.1,0.0500,-35.58,85.85
584,82224.3,0.0500,-35.53,85.91
585,83176.4,0.0500,-35.41,85.07
586,84139.5,0.0500,-35.33,85.15
587,85113.8,0.0500,-35.18,85.24
588,86099.4,0.0500,-35.18,85.44
589,87096.4,0.0500,-35.05,85.25
590,88104.9,0.0500,-34.93,85.52
591,89125.1,0.0500,-34.81,85.45
592,90157.1,0.0500,-34.69,85.18
593,91201.1,0.0500,-34.53,85.15
594,92257.1,0.0500,-34.50,85.88
595,93325.4,0.0500,-34.31,85.22
596,94406.1,0.0500,-34.31,85.17
597,95499.3,0.0500,-34.18,85.28
598,96605.1,0.0500,-34.10,85.41
599,97723.7,0.0500,-34.00,85.48
600,98855.3,0.0500,-33.83,84.97
601,100000.0,0.0500,-33.78,85.30
602,101157.9,0.0500,-33.66,85.60
603,102329.3,0.0500,-33.55,84.97
604,103514.2,0.0500,-33.56,84.99
605,104712.9,0.0500,-33.35,85.56
606,105925.4,0.0500,-33.17,85.26
607,107151.9,0.0500,-33.14,84.91
608,108392.7,0.0500,-32.95,85.21
609,109647.8,0.0500,-32.91,85.49
610,110917.5,0.0500,-32.88,84.88
611,112201.8,0.0500,-32.69,85.17
612,113501.1,0.0500,-32.59,85.24
613,114815.4,0.0500,-32.41,84.95
614,116144.9,0.0500,-32.32,84.83
615,117489.8,0.0500,-32.32,85.31
616,118850.2,0.0500,-32.18,84.62
617,120226.4,0.0500,-32.06,85.31
618,121618.6,0.0500,-31.96,85.40
619,123026.9,0.0500,-31.87,84.96
620,124451.5,0.0500,-31.75,85.86
621,125892.5,0.0500,-31.59,85.05
622,127350.3,0.0500,-31.55,84.85
623,128825.0,0.0500,-31.47,84.53
624,130316.7,0.0500,-31.32,85.84
625,131825.7,0.0500,-31.26,84.90
626,133352.1,0.0500,-31.17,85.03
627,134896.3,0.0500,-30.91,84.04
628,136458.3,0.0500,-30.96,84.88
629,138038.4,0.0500,-30.85,84.81
630,139636.8,0.0500,-30.58,85.09
631,141253.8,0.0500,-30.59,84.98
632,142889.4,0.0500,-30.51,84.53
633,144544.0,0.0500,-30.36,84.93
634,146217.7,0.0500,-30.21,84.88
635,147910.8,0.0500,-30.11,84.75
636,149623.6,0.0500,-29.97,85.53
637,151356.1,0.0500,-29.99,84.61
638,153108.7,0.0500,-29.88,84.53
639,154881.7,0.0500,-29.83,84.56
640,156675.1,0.0500,-29.63,84.33
641,158489.3,0.0500,-29.57,84.39
642,160324.5,0.0500,-29.48,83.87
643,162181.0,0.0500,-29.43,83.66
644,164059.0,0.0500,-29.22,83.91
645,165958.7,0.0500,-29.06,84.41
646,167880.4,0.0500,-28.95,83.84
647,169824.4,0.0500,-28.83,83.95
648,171790.8,0.0500,-28.75,83.96
649,173780.1,0.0500,-28.63,83.87
650,175792.4,0.0500,-28.57,84.51
651,177827.9,0.0500,-28.40,84.13
652,179887.1,0.0500,-28.33,83.85
653,181970.1,0.0500,-28.20,83.62
654,184077.2,0.0500,-28.04,83.59
655,186208.7,0.0500,-27.95,83.44
656,188364.9,0.0500,-27.92,83.79
657,190546.1,0.0500,-27.74,83.28
658,192752.5,0.0500,-27.57,83.26
659,194984.5,0.0500,-27.46,83.61
660,197242.3,0.0500,-27.32,81.77
661,199526.2,0.0500,-27.29,83.34
662,201836.6,0.0500,-27.20,83.36
663,204173.8,0.0500,-27.04,83.56
664,206538.0,0.0500,-26.98,83.13
665,208929.6,0.0500,-26.85,82.70
666,211348.9,0.0500,-26.69,83.00
667,213796.2,0.0500,-26.58,82.68
668,216271.9,0.0500,-26.47,82.73
669,218776.2,0.0500,-26.39,83.00
670,221309.5,0.0500,-26.26,82.76
671,223872.1,0.0500,-26.16,82.94
672,226464.4,0.0500,-26.04,82.73
673,229086.8,0.0500,-25.91,81.75
674,231739.5,0.0500,-25.76,81.85
675,234422.9,0.0500,-25.63,81.87
676,237137.4,0.0500,-25.53,82.91
677,239883.3,0.0500,-25.44,82.40
678,242661.0,0.0500,-25.34,82.66
679,245470.9,0.0500,-25.17,81.62
680,248313.3,0.0500,-25.04,81.89
681,251188.6,0.0500,-25.04,81.83
682,254097.3,0.0500,-24.84,81.64
683,257039.6,0.0500,-24.72,79.46
684,260016.0,0.0500,-24.58,81.52
685,263026.8,0.0500,-24.51,81.16
686,266072.5,0.0500,-24.25,81.54
687,269153.5,0.0500,-24.25,81.35
688,272270.1,0.0500,-24.06,80.54
689,275422.9,0.0500,-23.91,81.04
690,278612.1,0.0500,-23.83,80.61
691,281838.3,0.0500,-23.54,80.64
692,285101.8,0.0500,-23.57,80.88
693,288403.2,0.0500,-23.47,80.59
694,291742.7,0.0500,-23.36,80.91
695,295120.9,0.0500,-23.22,80.45
696,298538.3,0.0500,-23.08,80.18
697,301995.2,0.0500,-22.90,80.23
698,305492.1,0.0500,-22.75,79.52
699,309029.5,0.0500,-22.70,79.49
700,312607.9,0.0500,-22.52,79.75
701,316227.8,0.0500,-22.39,79.74
702,319889.5,0.0500,-22.23,79.20
703,323593.7,0.0500,-22.11,79.05
704,327340.7,0.0500,-21.97,78.86
705,331131.1,0.0500,-21.86,76.11
706,334965.4,0.0500,-21.46,78.07
707,338844.2,0.0500,-21.53,78.44
708,342767.8,0.0500,-21.41,78.19
709,346736.9,0.0500,-21.29,79.73
710,350751.9,0.0500,-21.02,76.76
711,354813.4,0.0500,-20.93,77.96
712,358921.9,0.0500,-20.84,78.00
713,363078.1,0.0500,-20.89,77.15
714,367282.3,0.0500,-20.43,78.28
715,371535.2,0.0500,-20.38,77.05
716,375837.4,0.0500,-20.22,76.53
717,380189.4,0.0500,-20.09,77.83
718,384591.8,0.0500,-19.94,76.65
719,389045.1,0.0500,-19.72,76.24
720,393550.1,0.0500,-19.61,75.71
721,398107.2,0.0500,-19.41,76.62
722,402717.0,0.0500,-19.35,75.02
723,407380.3,0.0500,-19.13,75.09
724,412097.5,0.0500,-18.99,74.72
725,416869.4,0.0500,-18.79,74.51
726,421696.5,0.0500,-18.61,73.94
727,426579.5,0.0500,-18.43,74.05
728,431519.1,0.0500,-18.30,73.80
729,436515.8,0.0500,-18.11,73.37
730,441570.4,0.0500,-17.83,70.34
731,446683.6,0.0500,-17.69,72.59
732,451855.9,0.0500,-17.52,72.59
733,457088.2,0.0500,-17.39,72.02
734,462381.0,0.0500,-17.39,71.04
735,467735.1,0.0500,-17.03,71.34
736,473151.3,0.0500,-16.75,71.23
737,478630.1,0.0500,-16.67,70.38
738,484172.4,0.0500,-16.41,70.17
739,489778.8,0.0500,-16.15,69.63
740,495450.2,0.0500,-15.95,69.60
741,501187.2,0.0500,-15.73,68.66
742,506990.7,0.0500,-15.56,67.87
743,512861.4,0.0500,-15.27,66.79
744,518800.0,0.0500,-15.12,65.93
745,524807.5,0.0500,-14.79,66.08
746,530884.4,0.0500,-14.57,65.33
747,537031.8,0.0500,-14.27,65.01
748,543250.3,0.0500,-14.01,64.61
749,549540.9,0.0500,-13.77,63.94
750,555904.3,0.0500,-13.54,62.93
751,562341.3,0.0500,-13.28,61.77
752,568852.9,0.0500,-12.90,61.54
753,575439.9,0.0500,-12.68,60.41
754,582103.2,0.0500,-12.49,59.07
755,588843.7,0.0500,-12.17,58.53
756,595662.1,0.0500,-11.88,56.26
757,602559.6,0.0500,-11.66,55.84
758,609536.9,0.0500,-11.40,55.33
759,616595.0,0.0500,-10.97,53.34
760,623734.8,0.0500,-10.69,51.50
761,630957.3,0.0500,-10.35,50.30
762,638263.5,0.0500,-10.14,48.55
763,645654.2,0.0500,-9.73,47.10
764,653130.6,0.0500,-9.41,44.86
765,660693.4,0.0500,-9.05,42.52
766,668343.9,0.0500,-8.70,40.65
767,676083.0,0.0500,-8.36,38.48
768,683911.6,0.0500,-8.06,35.18
769,691831.0,0.0500,-7.77,32.69
770,699842.0,0.0500,-7.40,29.56
771,707945.8,0.0500,-7.13,25.89
772,716143.4,0.0500,-6.80,22.65
773,724436.0,0.0500,-6.59,19.04
774,732824.5,0.0500,-6.36,14.59
775,741310.2,0.0500,-6.23,11.08
776,749894.2,0.0500,-6.01,7.00
777,758577.6,0.0500,-5.98,1.83
778,767361.5,0.0500,-5.89,-1.99
779,776247.1,0.0500,-5.92,-7.16
780,785235.6,0.0500,-6.00,-12.04
781,794328.2,0.0500,-6.12,-16.01
782,803526.1,0.0500,-6.24,-20.88
783,812830.5,0.0500,-6.47,-24.36
784,822242.6,0.0500,-6.76,-28.74
785,831763.8,0.0500,-7.05,-32.19
786,841395.1,0.0500,-7.28,-36.05
787,851138.0,0.0500,-7.69,-39.19
788,860993.8,0.0500,-8.07,-42.42
789,870963.6,0.0500,-8.40,-45.13
790,881048.9,0.0500,-8.72,-47.78
791,891250.9,0.0500,-9.20,-49.88
792,901571.1,0.0500,-9.52,-52.20
793,912010.8,0.0500,-9.91,-54.17
794,922571.4,0.0500,-10.16,-56.95
795,933254.3,0.0500,-10.60,-58.37
796,944060.9,0.0500,-11.00,-59.89
797,954992.6,0.0500,-11.28,-61.28
798,966050.9,0.0500,-11.64,-62.81
799,977237.2,0.0500,-12.02,-64.12
800,988553.1,0.0500,-12.42,-65.48
801,1000000.0,0.0500,-12.69,-66.02
802,1011579.5,0.0500,-12.95,-68.28
803,1023293.0,0.0500,-13.40,-68.82
804,1035142.2,0.0500,-13.69,-69.69
805,1047128.5,0.0500,-13.91,-70.01
806,1059253.7,0.0500,-14.28,-71.16
807,1071519.3,0.0500,-14.61,-72.34
808,1083926.9,0.0500,-15.04,-73.08
809,1096478.2,0.0500,-15.22,-73.25
810,1109174.8,0.0500,-15.28,-72.42
811,1122018.5,0.0500,-15.78,-74.28
812,1135010.8,0.0500,-16.21,-75.44
813,1148153.6,0.0500,-16.50,-74.54
814,1161448.6,0.0500,-16.85,-76.54
815,1174897.6,0.0500,-17.09,-76.53
816,1188502.2,0.0500,-17.53,-76.68
817,1202264.4,0.0500,-17.88,-78.05
818,1216186.0,0.0500,-18.07,-78.53
819,1230268.8,0.0500,-18.42,-78.30
820,1244514.6,0.0500,-18.76,-76.95
821,1258925.4,0.0500,-19.06,-77.61
822,1273503.1,0.0500,-19.31,-78.07
823,1288249.6,0.0500,-19.77,-77.65
824,1303166.8,0.0500,-20.24,-76.45
825,1318256.7,0.0500,-20.52,-76.52
826,1333521.4,0.0500,-21.07,-73.50
827,1348962.9,0.0500,-21.15,-73.29
828,1364583.1,0.0500,-21.82,-75.07
829,1380384.3,0.0500,-21.88,-72.48
830,1396368.4,0.0500,-22.23,-70.86
831,1412537.5,0.0500,-22.48,-65.75
832,1428894.0,0.0500,-22.79,-65.62
833,1445439.8,0.0500,-23.09,-61.91
834,1462177.2,0.0500,-23.67,-61.14
835,1479108.4,0.0500,-23.23,-55.06
836,1496235.7,0.0500,-23.18,-52.45
837,1513561.2,0.0500,-22.80,-48.78
838,1531087.5,0.0500,-22.51,-45.32
839,1548816.6,0.0500,-22.00,-43.40
840,1566751.1,0.0500,-21.53,-41.69
841,1584893.2,0.0500,-20.84,-41.22
842,1603245.4,0.0500,-20.37,-43.07
843,1621810.1,0.0500,-19.93,-45.01
844,1640589.8,0.0500,-19.71,-46.77
845,1659586.9,0.0500,-19.25,-49.99
846,1678804.0,0.0500,-19.06,-51.45
847,1698243.7,0.0500,-18.93,-54.65
848,1717908.4,0.0500,-18.83,-57.17
849,1737800.8,0.0500,-18.84,-59.41
850,1757923.6,0.0500,-18.94,-61.48
851,1778279.4,0.0500,-18.91,-64.30
852,1798870.9,0.0500,-19.16,-65.39
853,1819700.9,0.0500,-19.15,-68.30
854,1840772.0,0.0500,-19.53,-69.88
855,1862087.1,0.0500,-19.69,-71.39
856,1883649.1,0.0500,-19.77,-72.72
857,1905460.7,0.0500,-20.00,-74.16
858,1927524.9,0.0500,-20.04,-76.23
859,1949844.6,0.0500,-20.32,-75.98
860,1972422.7,0.0500,-20.54,-76.42
861,1995262.3,0.0500,-20.66,-77.94
862,2018366.4,0.0500,-20.86,-80.10
863,2041737.9,0.0500,-21.08,-79.85
864,2065380.2,0.0500,-21.30,-80.08
865,2089296.1,0.0500,-21.49,-80.40
866,2113489.0,0.0500,-21.60,-81.92
867,2137962.1,0.0500,-21.74,-81.87
868,2162718.5,0.0500,-21.96,-81.28
869,2187761.6,0.0500,-22.07,-82.76
870,2213094.7,0.0500,-22.22,-82.54
871,2238721.1,0.0500,-22.47,-82.80
872,2264644.3,0.0500,-22.42,-84.13
873,2290867.7,0.0500,-22.71,-86.32
874,2317394.6,0.0500,-22.80,-84.79
875,2344228.8,0.0500,-22.96,-86.14
876,2371373.7,0.0500,-23.22,-86.88
877,2398832.9,0.0500,-23.30,-86.17
878,2426610.1,0.0500,-23.54,-86.29
879,2454708.9,0.0500,-23.75,-86.19
880,2483133.1,0.0500,-23.89,-87.14
881,2511886.4,0.0500,-24.08,-85.47
882,2540972.7,0.0500,-24.12,-88.27
883,2570395.8,0.0500,-24.32,-87.67
884,2600159.6,0.0500,-24.48,-89.36
885,2630268.0,0.0500,-25.02,-86.60
886,2660725.1,0.0500,-24.75,-89.91
887,2691534.8,0.0500,-24.94,-89.43
888,2722701.3,0.0500,-25.00,-90.76
889,2754228.7,0.0500,-25.18,-88.35
890,2786121.2,0.0500,-25.20,-91.03
891,2818382.9,0.0500,-25.53,-89.56
892,2851018.3,0.0500,-25.51,-91.24
893,2884031.5,0.0500,-25.61,-89.83
894,2917427.0,0.0500,-25.78,-89.66
895,2951209.2,0.0500,-25.87,-89.67
896,2985382.6,0.0500,-26.08,-91.18
897,3019951.7,0.0500,-25.96,-91.20
898,3054921.1,0.0500,-26.16,-91.22
899,3090295.4,0.0500,-26.37,-92.17
900,3126079.4,0.0500,-26.65,-93.64
901,3162277.7,0.0500,-26.50,-93.38
902,3198895.1,0.0500,-26.73,-93.70
903,3235936.6,0.0500,-26.95,-93.74
904,3273406.9,0.0500,-26.32,-100.41
905,3311311.2,0.0500,-27.30,-93.33
906,3349654.4,0.0500,-27.25,-93.85
907,3388441.6,0.0500,-27.58,-94.98
908,3427677.9,0.0500,-27.66,-94.66
909,3467368.5,0.0500,-27.81,-93.90
910,3507518.7,0.0500,-27.88,-93.27
911,3548133.9,0.0500,-28.00,-93.03
912,3589219.3,0.0500,-27.92,-92.65
913,3630780.5,0.0500,-28.08,-93.41
914,3672823.0,0.0500,-28.33,-94.51
915,3715352.3,0.0500,-28.50,-95.62
916,3758374.0,0.0500,-28.63,-95.57
917,3801894.0,0.0500,-28.44,-94.31
918,3845917.8,0.0500,-28.89,-97.71
919,3890451.4,0.0500,-28.90,-96.26
920,3935500.8,0.0500,-29.07,-96.58
921,3981071.7,0.0500,-29.43,-97.69
922,4027170.3,0.0500,-29.12,-98.48
923,4073802.8,0.0500,-29.57,-98.11
924,4120975.2,0.0500,-29.59,-98.10
925,4168693.8,0.0500,-29.81,-97.42
926,4216965.0,0.0500,-29.86,-96.96
927,4265795.2,0.0500,-29.83,-99.13
928,4315190.8,0.0500,-30.18,-99.12
929,4365158.3,0.0500,-30.09,-97.87
930,4415704.5,0.0500,-32.96,-89.88
931,4466835.9,0.0500,-30.40,-98.31
932,4518559.4,0.0500,-30.72,-98.04
933,4570881.9,0.0500,-30.99,-97.37
934,4623810.2,0.0500,-30.93,-98.03
935,4677351.4,0.0500,-31.31,-101.56
936,4731512.6,0.0500,-31.54,-100.50
937,4786300.9,0.0500,-32.13,-96.07
938,4841723.7,0.0500,-29.87,-89.01
939,4897788.2,0.0500,-31.68,-98.17
940,4954501.9,0.0500,-31.91,-98.52
941,5011872.3,0.0500,-31.68,-95.57
942,5069907.1,0.0500,-31.82,-99.15
943,5128613.8,0.0500,-31.84,-100.40
944,5188000.4,0.0500,-31.64,-98.88
945,5248074.6,0.0500,-32.07,-97.06
946,5308844.4,0.0500,-32.02,-99.82
947,5370318.0,0.0500,-32.47,-99.35
948,5432503.3,0.0500,-30.77,-103.55
949,5495408.7,0.0500,-32.65,-100.92
950,5559042.6,0.0500,-33.06,-99.77
951,5623413.3,0.0500,-32.61,-100.08
952,5688529.3,0.0500,-31.69,-116.99
953,5754399.4,0.0500,-32.57,-98.89
954,5821032.2,0.0500,-32.56,-101.56
955,5888436.6,0.0500,-32.81,-100.24
956,5956621.4,0.0500,-31.25,-114.38
957,6025595.9,0.0500,-31.32,-105.32
958,6095369.0,0.0500,-33.55,-105.21
959,6165950.0,0.0500,-33.59,-110.59
960,6237348.4,0.0500,-33.16,-106.78
961,6309573.4,0.0500,-32.29,-102.89
962,6382634.9,0.0500,-34.03,-104.90
963,6456542.3,0.0500,-34.36,-104.94
964,6531305.5,0.0500,-33.77,-102.67
965,6606934.5,0.0500,-34.40,-104.27
966,6683439.2,0.0500,-34.23,-104.65
967,6760829.8,0.0500,-34.58,-107.98
968,6839116.5,0.0500,-34.17,-111.09
969,6918309.7,0.0500,-34.65,-110.08
970,6998420.0,0.0500,-34.54,-111.51
971,7079457.8,0.0500,-35.40,-108.21
972,7161434.1,0.0500,-35.07,-108.98
973,7244359.6,0.0500,-35.50,-110.33
974,7328245.3,0.0500,-35.46,-109.60
975,7413102.4,0.0500,-35.44,-108.03
976,7498942.1,0.0500,-32.89,-101.87
977,7585775.8,0.0500,-35.71,-112.95
978,7673614.9,0.0500,-35.90,-110.60
979,7762471.2,0.0500,-36.64,-112.16
980,7852356.3,0.0500,-36.39,-112.81
981,7943282.3,0.0500,-36.24,-114.13
982,8035261.2,0.0500,-36.79,-112.51
983,8128305.2,0.0500,-36.90,-114.71
984,8222426.5,0.0500,-37.14,-114.95
985,8317637.7,0.0500,-37.57,-114.20
986,8413951.4,0.0500,-36.97,-109.93
987,8511380.4,0.0500,-37.51,-114.56
988,8609937.5,0.0500,-38.14,-117.94
989,8709635.9,0.0500,-36.98,-122.04
990,8810488.7,0.0500,-38.27,-83.61
991,8912509.4,0.0500,-38.33,-118.91
992,9015711.4,0.0500,-38.03,-121.01
993,9120108.4,0.0500,-38.71,-114.51
994,9225714.3,0.0500,-38.72,-124.99
995,9332543.0,0.0500,-37.78,-132.31
996,9440608.8,0.0500,-37.44,-126.44
997,9549925.9,0.0500,-38.97,-115.58
998,9660508.8,0.0500,-38.71,-119.79
999,9772372.2,0.0500,-39.44,-120.63
1000,9885530.9,0.0500,-39.15,-119.46
1001,10000000.0,0.0500,-39.59,-116.90
