#, Frequency (Hz), Amplitude (Vpp), Gain (dB), Phase (°)
1,100.0,0.0500,-65.09,-2.47
2,101.2,0.0500,-62.75,-2.88
3,102.3,0.0500,-64.09,8.71
4,103.5,0.0500,-64.73,-0.76
5,104.7,0.0500,-65.59,13.25
6,105.9,0.0500,-63.79,-0.66
7,107.2,0.0500,-63.94,-1.15
8,108.4,0.0500,-65.52,1.17
9,109.6,0.0500,-64.42,2.02
10,110.9,0.0500,-64.04,-1.98
11,112.2,0.0500,-63.80,14.89
12,113.5,0.0500,-64.43,2.93
13,114.8,0.0500,-63.54,-2.25
14,116.1,0.0500,-64.41,9.43
15,117.5,0.0500,-64.79,6.44
16,118.9,0.0500,-64.11,5.26
17,120.2,0.0500,-64.51,3.85
18,121.6,0.0500,-63.06,0.55
19,123.0,0.0500,-64.22,2.70
20,124.5,0.0500,-65.23,1.12
21,125.9,0.0500,-63.97,-7.52
22,127.4,0.0500,-63.76,2.12
23,128.8,0.0500,-64.00,1.06
24,130.3,0.0500,-63.31,5.19
25,131.8,0.0500,-65.69,2.24
26,133.4,0.0500,-64.59,6.31
27,134.9,0.0500,-64.60,5.68
28,136.5,0.0500,-63.98,1.46
29,138.0,0.0500,-64.20,3.76
30,139.6,0.0500,-63.61,5.64
31,141.3,0.0500,-64.33,3.88
32,142.9,0.0500,-64.43,11.30
33,144.5,0.0500,-64.05,0.60
34,146.2,0.0500,-63.77,6.92
35,147.9,0.0500,-63.47,-0.56
36,149.6,0.0500,-64.61,-0.05
37,151.4,0.0500,-64.20,-0.19
38,153.1,0.0500,-64.67,-0.68
39,154.9,0.0500,-63.45,5.95
40,156.7,0.0500,-64.34,-0.87
41,158.5,0.0500,-63.03,0.38
42,160.3,0.0500,-64.46,10.58
43,162.2,0.0500,-64.27,1.20
44,164.1,0.0500,-64.56,10.99
45,166.0,0.0500,-64.32,12.27
46,167.9,0.0500,-65.75,4.11
47,169.8,0.0500,-63.01,2.85
48,171.8,0.0500,-64.41,0.42
49,173.8,0.0500,-64.14,-0.85
50,175.8,0.0500,-64.96,9.66
51,177.8,0.0500,-64.44,3.25
52,179.9,0.0500,-64.25,8.58
53,182.0,0.0500,-65.54,12.70
54,184.1,0.0500,-64.40,10.35
55,186.2,0.0500,-64.24,9.18
56,188.4,0.0500,-64.22,6.52
57,190.5,0.0500,-64.36,10.60
58,192.8,0.0500,-64.68,5.95
59,195.0,0.0500,-63.61,4.74
60,197.2,0.0500,-63.33,6.78
61,199.5,0.0500,-64.27,4.27
62,201.8,0.0500,-63.51,5.89
63,204.2,0.0500,-64.86,10.35
64,206.5,0.0500,-63.58,1.85
65,208.9,0.0500,-64.76,1.40
66,211.3,0.0500,-64.36,5.42
67,213.8,0.0500,-64.58,6.41
68,216.3,0.0500,-63.88,0.99
69,218.8,0.0500,-64.28,0.22
70,221.3,0.0500,-63.86,4.54
71,223.9,0.0500,-65.23,16.09
72,226.5,0.0500,-63.79,4.94
73,229.1,0.0500,-64.06,8.31
74,231.7,0.0500,-62.91,9.37
75,234.4,0.0500,-63.99,10.33
76,237.1,0.0500,-63.93,6.70
77,239.9,0.0500,-64.66,4.79
78,242.7,0.0500,-63.44,4.89
79,245.5,0.0500,-63.76,2.58
80,248.3,0.0500,-64.06,10.08
81,251.2,0.0500,-63.67,11.35
82,254.1,0.0500,-64.26,4.15
83,257.0,0.0500,-63.43,5.85
84,260.0,0.0500,-64.56,12.26
85,263.0,0.0500,-64.15,9.73
86,266.1,0.0500,-64.46,10.54
87,269.2,0.0500,-64.19,5.90
88,272.3,0.0500,-63.26,5.88
89,275.4,0.0500,-64.12,7.95
90,278.6,0.0500,-64.04,10.16
91,281.8,0.0500,-64.21,8.87
92,285.1,0.0500,-64.17,3.60
93,288.4,0.0500,-63.95,7.56
94,291.7,0.0500,-63.83,9.85
95,295.1,0.0500,-64.14,7.14
96,298.5,0.0500,-64.21,2.43
97,302.0,0.0500,-64.35,12.98
98,305.5,0.0500,-64.10,7.72
99,309.0,0.0500,-63.83,8.76
100,312.6,0.0500,-64.16,9.54
101,316.2,0.0500,-64.26,3.57
102,319.9,0.0500,-64.33,8.40
103,323.6,0.0500,-64.44,13.40
104,327.3,0.0500,-64.09,8.73
105,331.1,0.0500,-63.79,7.23
106,335.0,0.0500,-64.39,13.47
107,338.8,0.0500,-63.86,9.94
108,342.8,0.0500,-64.26,8.76
109,346.7,0.0500,-64.49,5.53
110,350.8,0.0500,-64.28,16.83
111,354.8,0.0500,-63.61,10.87
112,358.9,0.0500,-63.74,5.21
113,363.1,0.0500,-63.50,13.84
114,367.3,0.0500,-63.98,11.53
115,371.5,0.0500,-64.45,14.90
116,375.8,0.0500,-64.27,12.96
117,380.2,0.0500,-64.59,11.81
118,384.6,0.0500,-63.72,12.20
119,389.0,0.0500,-63.96,11.75
120,393.6,0.0500,-64.12,10.96
121,398.1,0.0500,-65.06,17.75
122,402.7,0.0500,-64.56,11.44
123,407.4,0.0500,-63.87,8.42
124,412.1,0.0500,-64.16,10.89
125,416.9,0.0500,-63.47,10.64
126,421.7,0.0500,-64.33,12.33
127,426.6,0.0500,-64.11,9.50
128,431.5,0.0500,-64.14,16.00
129,436.5,0.0500,-63.87,8.43
130,441.6,0.0500,-63.39,11.17
131,446.7,0.0500,-64.18,14.06
132,451.9,0.0500,-64.16,12.16
133,457.1,0.0500,-64.88,15.05
134,462.4,0.0500,-63.79,13.09
135,467.7,0.0500,-64.20,10.27
136,473.2,0.0500,-64.14,16.51
137,478.6,0.0500,-64.05,18.05
138,484.2,0.0500,-63.65,11.76
139,489.8,0.0500,-63.41,15.51
140,495.5,0.0500,-63.86,17.53
141,501.2,0.0500,-64.22,6.14
142,507.0,0.0500,-64.14,18.80
143,512.9,0.0500,-63.82,5.04
144,518.8,0.0500,-63.98,9.88
145,524.8,0.0500,-64.61,9.28
146,530.9,0.0500,-64.11,19.15
147,537.0,0.0500,-63.60,15.53
148,543.3,0.0500,-63.37,16.91
149,549.5,0.0500,-63.54,13.15
150,555.9,0.0500,-63.42,14.10
151,562.3,0.0500,-63.95,19.40
152,568.9,0.0500,-63.67,12.09
153,575.4,0.0500,-63.45,16.05
154,582.1,0.0500,-62.68,12.79
155,588.8,0.0500,-63.57,10.39
156,595.7,0.0500,-63.58,22.47
157,602.6,0.0500,-64.06,14.93
158,609.5,0.0500,-63.27,21.37
159,616.6,0.0500,-63.06,19.68
160,623.7,0.0500,-62.96,16.70
161,631.0,0.0500,-63.68,11.40
162,638.3,0.0500,-63.64,18.16
163,645.7,0.0500,-64.18,20.05
164,653.1,0.0500,-63.26,21.41
165,660.7,0.0500,-63.14,17.29
166,668.3,0.0500,-62.79,19.28
167,676.1,0.0500,-63.71,20.58
168,683.9,0.0500,-63.65,17.84
169,691.8,0.0500,-64.00,16.78
170,699.8,0.0500,-62.82,24.81
171,707.9,0.0500,-63.66,23.21
172,716.1,0.0500,-63.61,22.69
173,724.4,0.0500,-63.63,23.33
174,732.8,0.0500,-64.28,18.91
175,741.3,0.0500,-63.91,21.67
176,749.9,0.0500,-63.97,18.32
177,758.6,0.0500,-63.41,23.34
178,767.4,0.0500,-64.11,15.45
179,776.2,0.0500,-62.62,21.69
180,785.2,0.0500,-64.64,20.68
181,794.3,0.0500,-63.34,25.75
182,803.5,0.0500,-62.98,27.41
183,812.8,0.0500,-62.97,22.73
184,822.2,0.0500,-62.78,14.95
185,831.8,0.0500,-64.19,24.56
186,841.4,0.0500,-64.22,25.01
187,851.1,0.0500,-63.13,22.01
188,861.0,0.0500,-62.80,24.80
189,871.0,0.0500,-63.05,23.28
190,881.0,0.0500,-63.53,21.90
191,891.3,0.0500,-63.21,20.99
192,901.6,0.0500,-63.49,29.68
193,912.0,0.0500,-63.36,28.68
194,922.6,0.0500,-63.14,18.88
195,933.3,0.0500,-62.85,26.39
196,944.1,0.0500,-63.29,24.97
197,955.0,0.0500,-62.99,23.45
198,966.1,0.0500,-64.03,20.58
199,977.2,0.0500,-62.16,26.78
200,988.6,0.0500,-62.71,26.74
201,1000.0,0.0500,-62.40,22.64
202,1011.6,0.0500,-62.67,30.46
203,1023.3,0.0500,-62.75,26.96
204,1035.1,0.0500,-63.50,18.27
205,1047.1,0.0500,-62.33,29.18
206,1059.3,0.0500,-63.12,26.47
207,1071.5,0.0500,-62.61,29.19
208,1083.9,0.0500,-63.20,28.84
209,1096.5,0.0500,-62.30,31.31
210,1109.2,0.0500,-62.99,25.84
211,1122.0,0.0500,-62.71,24.98
212,1135.0,0.0500,-62.92,30.79
213,1148.2,0.0500,-62.40,26.05
214,1161.4,0.0500,-62.26,26.18
215,1174.9,0.0500,-63.36,31.32
216,1188.5,0.0500,-61.95,36.11
217,1202.3,0.0500,-62.57,29.70
218,1216.2,0.0500,-62.80,31.31
219,1230.3,0.0500,-62.59,32.51
220,1244.5,0.0500,-62.36,37.09
221,1258.9,0.0500,-62.50,32.00
222,1273.5,0.0500,-62.16,32.74
223,1288.2,0.0500,-62.47,31.71
224,1303.2,0.0500,-62.91,35.97
225,1318.3,0.0500,-62.14,28.15
226,1333.5,0.0500,-61.70,33.23
227,1349.0,0.0500,-62.53,35.10
228,1364.6,0.0500,-62.38,33.83
229,1380.4,0.0500,-62.28,37.04
230,1396.4,0.0500,-62.38,41.02
231,1412.5,0.0500,-61.60,32.34
232,1428.9,0.0500,-62.30,38.41
233,1445.4,0.0500,-61.83,36.65
234,1462.2,0.0500,-62.12,33.14
235,1479.1,0.0500,-62.04,32.92
236,1496.2,0.0500,-61.54,35.00
237,1513.6,0.0500,-61.55,38.67
238,1531.1,0.0500,-61.98,32.25
239,1548.8,0.0500,-61.68,36.39
240,1566.8,0.0500,-62.07,42.00
241,1584.9,0.0500,-62.38,40.52
242,1603.2,0.0500,-62.05,37.59
243,1621.8,0.0500,-61.53,43.72
244,1640.6,0.0500,-62.84,36.17
245,1659.6,0.0500,-61.44,39.48
246,1678.8,0.0500,-61.33,40.27
247,1698.2,0.0500,-62.00,36.40
248,1717.9,0.0500,-61.52,43.87
249,1737.8,0.0500,-62.02,40.11
250,1757.9,0.0500,-61.76,42.13
251,1778.3,0.0500,-61.53,37.21
252,1798.9,0.0500,-61.82,39.76
253,1819.7,0.0500,-61.77,37.32
254,1840.8,0.0500,-61.74,44.10
255,1862.1,0.0500,-61.51,42.00
256,1883.6,0.0500,-61.20,41.52
257,1905.5,0.0500,-61.72,49.87
258,1927.5,0.0500,-61.35,46.54
259,1949.8,0.0500,-60.92,43.61
260,1972.4,0.0500,-61.72,44.76
261,1995.3,0.0500,-60.74,44.20
262,2018.4,0.0500,-61.24,43.68
263,2041.7,0.0500,-61.53,43.23
264,2065.4,0.0500,-60.84,44.89
265,2089.3,0.0500,-61.41,48.63
266,2113.5,0.0500,-60.67,48.44
267,2138.0,0.0500,-61.09,44.28
268,2162.7,0.0500,-61.02,43.68
269,2187.8,0.0500,-60.45,45.59
270,2213.1,0.0500,-60.25,44.34
271,2238.7,0.0500,-59.85,47.49
272,2264.6,0.0500,-60.63,46.74
273,2290.9,0.0500,-59.82,48.22
274,2317.4,0.0500,-60.12,48.77
275,2344.2,0.0500,-60.43,48.17
276,2371.4,0.0500,-60.39,44.76
277,2398.8,0.0500,-59.96,51.39
278,2426.6,0.0500,-60.02,48.20
279,2454.7,0.0500,-60.47,52.01
280,2483.1,0.0500,-59.43,50.05
281,2511.9,0.0500,-59.95,53.21
282,2541.0,0.0500,-60.27,55.99
283,2570.4,0.0500,-59.67,50.08
284,2600.2,0.0500,-59.64,54.35
285,2630.3,0.0500,-59.79,52.26
286,2660.7,0.0500,-59.40,53.77
287,2691.5,0.0500,-59.54,52.33
288,2722.7,0.0500,-59.48,53.64
289,2754.2,0.0500,-59.48,53.88
290,2786.1,0.0500,-59.28,53.74
291,2818.4,0.0500,-59.45,53.92
292,2851.0,0.0500,-59.12,52.34
293,2884.0,0.0500,-58.83,52.17
294,2917.4,0.0500,-59.26,56.99
295,2951.2,0.0500,-58.88,58.01
296,2985.4,0.0500,-58.97,54.67
297,3020.0,0.0500,-59.25,52.89
298,3054.9,0.0500,-58.87,58.11
299,3090.3,0.0500,-58.87,56.49
300,3126.1,0.0500,-58.95,58.38
301,3162.3,0.0500,-58.71,55.03
302,3198.9,0.0500,-58.08,57.47
303,3235.9,0.0500,-58.75,58.17
304,3273.4,0.0500,-58.56,58.95
305,3311.3,0.0500,-58.52,59.65
306,3349.7,0.0500,-58.18,57.74
307,3388.4,0.0500,-58.18,60.83
308,3427.7,0.0500,-58.03,55.05
309,3467.4,0.0500,-57.88,57.79
310,3507.5,0.0500,-58.03,60.40
311,3548.1,0.0500,-57.80,58.28
312,3589.2,0.0500,-58.33,58.87
313,3630.8,0.0500,-57.31,58.47
314,3672.8,0.0500,-57.59,62.13
315,3715.4,0.0500,-57.41,61.60
316,3758.4,0.0500,-57.50,61.52
317,3801.9,0.0500,-57.28,60.71
318,3845.9,0.0500,-57.24,62.79
319,3890.5,0.0500,-57.49,61.51
320,3935.5,0.0500,-57.58,64.67
321,3981.1,0.0500,-57.03,62.67
322,4027.2,0.0500,-56.83,63.25
323,4073.8,0.0500,-56.97,65.04
324,4121.0,0.0500,-56.77,64.63
325,4168.7,0.0500,-56.70,63.48
326,4217.0,0.0500,-56.85,65.50
327,4265.8,0.0500,-56.58,64.69
328,4315.2,0.0500,-56.17,64.02
329,4365.2,0.0500,-56.64,65.66
330,4415.7,0.0500,-56.55,66.12
331,4466.8,0.0500,-56.65,66.03
332,4518.6,0.0500,-56.16,67.58
333,4570.9,0.0500,-56.21,64.02
334,4623.8,0.0500,-56.00,64.85
335,4677.4,0.0500,-55.71,67.72
336,4731.5,0.0500,-56.03,68.78
337,4786.3,0.0500,-55.70,66.78
338,4841.7,0.0500,-55.87,67.10
339,4897.8,0.0500,-55.94,67.05
340,4954.5,0.0500,-55.63,70.32
341,5011.9,0.0500,-55.40,68.14
342,5069.9,0.0500,-55.48,68.94
343,5128.6,0.0500,-55.40,68.84
344,5188.0,0.0500,-55.25,67.96
345,5248.1,0.0500,-55.27,67.26
346,5308.8,0.0500,-54.98,68.32
347,5370.3,0.0500,-55.07,67.40
348,5432.5,0.0500,-54.65,69.72
349,5495.4,0.0500,-54.83,69.55
350,5559.0,0.0500,-54.55,68.98
351,5623.4,0.0500,-54.52,69.08
352,5688.5,0.0500,-54.42,70.98
353,5754.4,0.0500,-54.53,71.21
354,5821.0,0.0500,-54.46,71.07
355,5888.4,0.0500,-54.00,70.47
356,5956.6,0.0500,-54.18,70.28
357,6025.6,0.0500,-54.23,71.14
358,6095.4,0.0500,-54.05,71.65
359,6166.0,0.0500,-53.84,70.61
360,6237.3,0.0500,-53.72,71.75
361,6309.6,0.0500,-53.61,72.29
362,6382.6,0.0500,-53.50,71.65
363,6456.5,0.0500,-53.23,72.75
364,6531.3,0.0500,-53.40,73.33
365,6606.9,0.0500,-53.40,71.34
366,6683.4,0.0500,-53.06,72.76
367,6760.8,0.0500,-53.17,71.32
368,6839.1,0.0500,-52.94,72.29
369,6918.3,0.0500,-52.92,73.80
370,6998.4,0.0500,-52.89,74.38
371,7079.5,0.0500,-52.70,72.54
372,7161.4,0.0500,-52.65,72.94
373,7244.4,0.0500,-52.64,73.41
374,7328.2,0.0500,-52.59,74.75
375,7413.1,0.0500,-52.50,74.31
376,7498.9,0.0500,-52.40,75.44
377,7585.8,0.0500,-52.08,74.95
378,7673.6,0.0500,-52.16,75.75
379,7762.5,0.0500,-51.80,75.39
380,7852.4,0.0500,-51.95,74.32
381,7943.3,0.0500,-51.75,77.30
382,8035.3,0.0500,-51.79,77.07
383,8128.3,0.0500,-51.55,75.90
384,8222.4,0.0500,-51.51,75.02
385,8317.6,0.0500,-51.33,76.54
386,8414.0,0.0500,-51.51,76.59
387,8511.4,0.0500,-51.21,76.96
388,8609.9,0.0500,-51.02,76.46
389,8709.6,0.0500,-51.14,77.09
390,8810.5,0.0500,-51.01,76.92
391,8912.5,0.0500,-51.00,75.44
392,9015.7,0.0500,-50.86,77.38
393,9120.1,0.0500,-50.76,77.38
394,9225.7,0.0500,-50.71,77.28
395,9332.5,0.0500,-50.29,77.96
396,9440.6,0.0500,-50.40,77.61
397,9549.9,0.0500,-50.27,77.40
398,9660.5,0.0500,-50.12,77.88
399,9772.4,0.0500,-50.04,77.86
400,9885.5,0.0500,-49.92,77.93
401,10000.0,0.0500,-49.90,77.82
402,10115.8,0.0500,-49.82,78.34
403,10232.9,0.0500,-49.76,79.34
404,10351.4,0.0500,-49.74,77.82
405,10471.3,0.0500,-49.50,78.82
406,10592.5,0.0500,-49.42,78.25
407,10715.2,0.0500,-49.36,78.85
408,10839.3,0.0500,-49.22,78.68
409,10964.8,0.0500,-49.10,79.55
410,11091.7,0.0500,-48.98,78.39
411,11220.2,0.0500,-48.94,79.34
412,11350.1,0.0500,-48.93,79.40
413,11481.5,0.0500,-48.78,78.97
414,11614.5,0.0500,-48.86,79.20
415,11749.0,0.0500,-48.54,80.10
416,11885.0,0.0500,-48.44,78.78
417,12022.6,0.0500,-48.31,79.90
418,12161.9,0.0500,-48.18,80.31
419,12302.7,0.0500,-48.18,80.47
420,12445.1,0.0500,-48.06,79.96
421,12589.3,0.0500,-47.93,79.64
422,12735.0,0.0500,-47.83,79.98
423,12882.5,0.0500,-47.77,80.61
424,13031.7,0.0500,-47.67,81.48
425,13182.6,0.0500,-47.44,80.63
426,13335.2,0.0500,-47.51,80.86
427,13489.6,0.0500,-47.38,80.68
428,13645.8,0.0500,-47.27,81.17
429,13803.8,0.0500,-47.19,81.23
430,13963.7,0.0500,-47.11,80.99
431,14125.4,0.0500,-46.99,81.92
432,14288.9,0.0500,-46.87,81.13
433,14454.4,0.0500,-46.73,81.89
434,14621.8,0.0500,-46.78,81.43
435,14791.1,0.0500,-46.65,81.76
436,14962.4,0.0500,-46.46,81.40
437,15135.6,0.0500,-46.43,82.27
438,15310.9,0.0500,-46.25,82.00
439,15488.2,0.0500,-46.34,80.91
440,15667.5,0.0500,-46.10,82.18
441,15848.9,0.0500,-46.00,82.25
442,16032.5,0.0500,-45.97,81.80
443,16218.1,0.0500,-45.79,82.48
444,16405.9,0.0500,-45.74,81.97
445,16595.9,0.0500,-45.54,82.24
446,16788.0,0.0500,-45.50,82.37
447,16982.4,0.0500,-45.45,83.15
448,17179.1,0.0500,-45.36,82.42
449,17378.0,0.0500,-45.16,82.88
450,17579.2,0.0500,-45.16,82.76
451,17782.8,0.0500,-45.01,82.66
452,17988.7,0.0500,-44.90,83.18
453,18197.0,0.0500,-44.76,83.08
454,18407.7,0.0500,-44.70,82.67
455,18620.9,0.0500,-44.64,83.42
456,18836.5,0.0500,-44.46,83.00
457,19054.6,0.0500,-44.46,82.87
458,19275.2,0.0500,-44.27,82.73
459,19498.4,0.0500,-44.22,83.23
460,19724.2,0.0500,-44.19,83.36
461,19952.6,0.0500,-44.04,82.89
462,20183.7,0.0500,-43.95,83.58
463,20417.4,0.0500,-43.80,83.81
464,20653.8,0.0500,-43.68,83.88
465,20893.0,0.0500,-43.64,83.70
466,21134.9,0.0500,-43.46,84.17
467,21379.6,0.0500,-43.40,84.02
468,21627.2,0.0500,-43.33,84.06
469,21877.6,0.0500,-43.30,84.29
470,22130.9,0.0500,-43.04,84.04
471,22387.2,0.0500,-42.96,84.28
472,22646.4,0.0500,-42.97,83.84
473,22908.7,0.0500,-42.84,84.41
474,23173.9,0.0500,-42.75,84.03
475,23442.3,0.0500,-42.63,84.32
476,23713.7,0.0500,-42.57,84.40
477,23988.3,0.0500,-42.36,84.36
478,24266.1,0.0500,-42.41,84.26
479,24547.1,0.0500,-42.32,84.89
480,24831.3,0.0500,-42.09,84.15
481,25118.9,0.0500,-42.04,84.41
482,25409.7,0.0500,-41.98,84.65
483,25704.0,0.0500,-41.78,85.02
484,26001.6,0.0500,-41.74,84.79
485,26302.7,0.0500,-41.60,84.62
486,26607.3,0.0500,-41.58,85.22
487,26915.3,0.0500,-41.39,84.65
488,27227.0,0.0500,-41.39,85.22
489,27542.3,0.0500,-41.24,84.29
490,27861.2,0.0500,-41.19,84.91
491,28183.8,0.0500,-41.02,84.48
492,28510.2,0.0500,-40.86,85.01
493,28840.3,0.0500,-40.80,84.75
494,29174.3,0.0500,-40.70,85.17
495,29512.1,0.0500,-40.63,85.57
496,29853.8,0.0500,-40.60,85.38
497,30199.5,0.0500,-40.41,85.61
498,30549.2,0.0500,-40.28,85.08
499,30903.0,0.0500,-40.12,85.36
500,31260.8,0.0500,-40.05,84.82
501,31622.8,0.0500,-40.00,85.55
502,31989.0,0.0500,-39.98,85.18
503,32359.4,0.0500,-39.68,85.03
504,32734.1,0.0500,-39.78,85.42
505,33113.1,0.0500,-39.65,85.75
506,33496.5,0.0500,-39.54,84.81
507,33884.4,0.0500,-39.33,86.07
508,34276.8,0.0500,-39.24,84.64
509,34673.7,0.0500,-39.13,85.92
510,35075.2,0.0500,-39.00,85.50
511,35481.3,0.0500,-39.03,85.52
512,35892.2,0.0500,-38.91,85.48
513,36307.8,0.0500,-38.70,85.88
514,36728.2,0.0500,-38.69,86.83
515,37153.5,0.0500,-38.62,85.67
516,37583.7,0.0500,-38.55,84.95
517,38018.9,0.0500,-38.43,86.09
518,38459.2,0.0500,-38.32,85.65
519,38904.5,0.0500,-38.02,85.87
520,39355.0,0.0500,-38.03,85.10
521,39810.7,0.0500,-38.07,85.83
522,40271.7,0.0500,-37.93,85.93
523,40738.0,0.0500,-37.70,85.67
524,41209.8,0.0500,-37.68,85.88
525,41686.9,0.0500,-37.49,85.95
526,42169.7,0.0500,-37.40,85.87
527,42658.0,0.0500,-37.37,85.88
528,43151.9,0.0500,-37.31,86.42
529,43651.6,0.0500,-37.17,85.89
530,44157.0,0.0500,-37.00,86.12
531,44668.4,0.0500,-36.91,86.54
532,45185.6,0.0500,-36.88,86.06
533,45708.8,0.0500,-36.74,86.11
534,46238.1,0.0500,-36.62,86.22
535,46773.5,0.0500,-36.47,85.80
536,47315.1,0.0500,-36.46,86.01
537,47863.0,0.0500,-36.31,86.05
538,48417.2,0.0500,-36.25,86.16
539,48977.9,0.0500,-36.06,86.60
540,49545.0,0.0500,-35.91,85.92
541,50118.7,0.0500,-35.87,85.82
542,50699.1,0.0500,-35.72,85.85
543,51286.1,0.0500,-35.61,86.53
544,51880.0,0.0500,-35.68,85.96
545,52480.7,0.0500,-35.56,85.94
546,53088.4,0.0500,-35.43,85.48
547,53703.2,0.0500,-35.26,85.61
548,54325.0,0.0500,-35.17,86.26
549,54954.1,0.0500,-35.07,85.77
550,55590.4,0.0500,-34.94,86.19
551,56234.1,0.0500,-34.85,85.78
552,56885.3,0.0500,-34.79,85.85
553,57544.0,0.0500,-34.70,85.64
554,58210.3,0.0500,-34.56,85.84
555,58884.4,0.0500,-34.52,85.98
556,59566.2,0.0500,-34.35,85.86
557,60256.0,0.0500,-34.24,86.49
558,60953.7,0.0500,-34.13,85.63
559,61659.5,0.0500,-34.05,85.59
560,62373.5,0.0500,-34.10,86.09
561,63095.7,0.0500,-33.86,85.82
562,63826.3,0.0500,-33.68,85.78
563,64565.4,0.0500,-33.66,86.14
564,65313.1,0.0500,-33.54,85.68
565,66069.3,0.0500,-33.38,85.88
566,66834.4,0.0500,-33.39,85.62
567,67608.3,0.0500,-33.26,85.28
568,68391.2,0.0500,-33.19,85.72
569,69183.1,0.0500,-33.03,86.00
570,69984.2,0.0500,-32.92,85.34
571,70794.6,0.0500,-32.87,85.68
572,71614.3,0.0500,-32.76,85.11
573,72443.6,0.0500,-32.63,85.80
574,73282.5,0.0500,-32.54,85.56
575,74131.0,0.0500,-32.45,85.74
576,74989.4,0.0500,-32.36,85.42
577,75857.8,0.0500,-32.24,85.73
578,76736.1,0.0500,-32.11,85.46
579,77624.7,0.0500,-32.06,85.51
580,78523.6,0.0500,-31.88,85.39
581,79432.8,0.0500,-31.82,85.24
582,80352.6,0.0500,-31.67,85.63
583,81283.1,0.0500,-31.60,85.21
584,82224.3,0.0500,-31.53,85.26
585,83176.4,0.0500,-31.41,85.37
586,84139.5,0.0500,-31.28,85.55
587,85113.8,0.0500,-31.20,85.26
588,86099.4,0.0500,-31.08,85.29
589,87096.4,0.0500,-30.97,85.86
590,88104.9,0.0500,-30.89,85.43
591,89125.1,0.0500,-30.80,85.35
592,90157.1,0.0500,-30.67,85.22
593,91201.1,0.0500,-30.55,85.27
594,92257.1,0.0500,-30.45,85.22
595,93325.4,0.0500,-30.40,85.29
596,94406.1,0.0500,-30.27,85.22
597,95499.3,0.0500,-30.13,85.17
598,96605.1,0.0500,-30.04,85.00
599,97723.7,0.0500,-29.96,85.14
600,98855.3,0.0500,-29.82,85.06
601,100000.0,0.0500,-29.72,85.03
602,101157.9,0.0500,-29.62,84.95
603,102329.3,0.0500,-29.51,84.83
604,103514.2,0.0500,-29.38,84.69
605,104712.9,0.0500,-29.26,84.91
606,105925.4,0.0500,-29.19,84.82
607,107151.9,0.0500,-29.09,84.89
608,108392.7,0.0500,-28.99,84.78
609,109647.8,0.0500,-28.88,84.76
610,110917.5,0.0500,-28.79,84.83
611,112201.8,0.0500,-28.66,84.63
612,113501.1,0.0500,-28.55,84.51
613,114815.4,0.0500,-28.43,84.64
614,116144.9,0.0500,-28.35,84.53
615,117489.8,0.0500,-28.23,84.44
616,118850.2,0.0500,-28.09,84.60
617,120226.4,0.0500,-28.01,84.49
618,121618.6,0.0500,-27.89,84.42
619,123026.9,0.0500,-27.81,84.58
620,124451.5,0.0500,-27.67,84.49
621,125892.5,0.0500,-27.59,84.10
622,127350.3,0.0500,-27.49,84.32
623,128825.0,0.0500,-27.37,84.32
624,130316.7,0.0500,-27.29,84.17
625,131825.7,0.0500,-27.17,84.13
626,133352.1,0.0500,-27.08,84.15
627,134896.3,0.0500,-26.95,83.82
628,136458.3,0.0500,-26.83,83.87
629,138038.4,0.0500,-26.71,83.84
630,139636.8,0.0500,-26.61,83.98
631,141253.8,0.0500,-26.51,83.87
632,142889.4,0.0500,-26.38,83.75
633,144544.0,0.0500,-26.26,83.76
634,146217.7,0.0500,-26.16,83.78
635,147910.8,0.0500,-26.09,83.73
636,149623.6,0.0500,-25.95,83.80
637,151356.1,0.0500,-25.83,83.44
638,153108.7,0.0500,-25.74,83.47
639,154881.7,0.0500,-25.63,83.54
640,156675.1,0.0500,-25.47,83.15
641,158489.3,0.0500,-25.34,83.44
642,160324.5,0.0500,-25.27,83.06
643,162181.0,0.0500,-25.13,83.16
644,164059.0,0.0500,-25.04,82.93
645,165958.7,0.0500,-24.99,82.86
646,167880.4,0.0500,-24.80,82.34
647,169824.4,0.0500,-24.77,82.71
648,171790.8,0.0500,-24.62,82.99
649,173780.1,0.0500,-24.42,82.89
650,175792.4,0.0500,-24.36,82.68
651,177827.9,0.0500,-24.25,82.96
652,179887.1,0.0500,-24.11,82.53
653,181970.1,0.0500,-23.99,82.75
654,184077.2,0.0500,-23.89,82.27
655,186208.7,0.0500,-23.79,82.58
656,188364.9,0.0500,-23.65,82.20
657,190546.1,0.0500,-23.52,81.96
658,192752.5,0.0500,-23.43,81.68
659,194984.5,0.0500,-23.27,81.67
660,197242.3,0.0500,-22.99,81.75
661,199526.2,0.0500,-23.06,81.44
662,201836.6,0.0500,-23.04,81.79
663,204173.8,0.0500,-22.83,81.22
664,206538.0,0.0500,-22.70,81.17
665,208929.6,0.0500,-22.56,80.93
666,211348.9,0.0500,-22.45,81.10
667,213796.2,0.0500,-22.33,80.62
668,216271.9,0.0500,-22.35,79.95
669,218776.2,0.0500,-21.99,80.62
670,221309.5,0.0500,-21.95,80.27
671,223872.1,0.0500,-21.66,80.21
672,226464.4,0.0500,-21.66,80.13
673,229086.8,0.0500,-21.51,80.26
674,231739.5,0.0500,-21.42,79.95
675,234422.9,0.0500,-21.30,80.35
676,237137.4,0.0500,-21.30,79.70
677,239883.3,0.0500,-21.07,80.21
678,242661.0,0.0500,-20.88,79.38
679,245470.9,0.0500,-20.74,79.44
680,248313.3,0.0500,-20.60,79.44
681,251188.6,0.0500,-20.38,79.36
682,254097.3,0.0500,-20.37,78.58
683,257039.6,0.0500,-20.16,76.76
684,260016.0,0.0500,-20.11,78.12
685,263026.8,0.0500,-19.97,78.54
686,266072.5,0.0500,-19.81,77.85
687,269153.5,0.0500,-19.64,77.85
688,272270.1,0.0500,-19.57,77.58
689,275422.9,0.0500,-19.39,77.40
690,278612.1,0.0500,-19.29,77.06
691,281838.3,0.0500,-19.05,77.38
692,285101.8,0.0500,-18.98,77.34
693,288403.2,0.0500,-18.79,77.33
694,291742.7,0.0500,-18.53,75.97
695,295120.9,0.0500,-18.39,76.21
696,298538.3,0.0500,-18.35,76.27
697,301995.2,0.0500,-18.21,76.72
698,305492.1,0.0500,-18.03,75.06
699,309029.5,0.0500,-17.90,74.43
700,312607.9,0.0500,-17.76,74.74
701,316227.8,0.0500,-17.55,74.39
702,319889.5,0.0500,-17.38,74.16
703,323593.7,0.0500,-17.18,73.83
704,327340.7,0.0500,-16.97,72.26
705,331131.1,0.0500,-16.80,71.91
706,334965.4,0.0500,-16.67,73.22
707,338844.2,0.0500,-16.50,73.06
708,342767.8,0.0500,-16.38,72.75
709,346736.9,0.0500,-16.18,72.14
710,350751.9,0.0500,-16.05,71.99
711,354813.4,0.0500,-15.82,71.30
712,358921.9,0.0500,-15.58,70.17
713,363078.1,0.0500,-15.48,70.91
714,367282.3,0.0500,-15.25,69.22
715,371535.2,0.0500,-15.00,69.71
716,375837.4,0.0500,-14.68,70.65
717,380189.4,0.0500,-14.83,69.02
718,384591.8,0.0500,-14.37,68.54
719,389045.1,0.0500,-14.17,69.09
720,393550.1,0.0500,-14.06,67.41
721,398107.2,0.0500,-13.79,67.60
722,402717.0,0.0500,-13.59,66.33
723,407380.3,0.0500,-13.39,65.69
724,412097.5,0.0500,-13.27,65.12
725,416869.4,0.0500,-12.90,64.90
726,421696.5,0.0500,-12.69,63.32
727,426579.5,0.0500,-12.43,65.20
728,431519.1,0.0500,-12.19,61.85
729,436515.8,0.0500,-11.99,61.67
730,441570.4,0.0500,-11.74,60.65
731,446683.6,0.0500,-11.52,59.70
732,451855.9,0.0500,-11.15,58.51
733,457088.2,0.0500,-11.18,57.32
734,462381.0,0.0500,-10.73,56.62
735,467735.1,0.0500,-10.19,55.60
736,473151.3,0.0500,-10.19,53.42
737,478630.1,0.0500,-9.96,53.18
738,484172.4,0.0500,-9.61,52.09
739,489778.8,0.0500,-9.33,50.43
740,495450.2,0.0500,-9.13,48.41
741,501187.2,0.0500,-8.81,47.22
742,506990.7,0.0500,-8.49,46.00
743,512861.4,0.0500,-7.91,43.62
744,518800.0,0.0500,-7.89,42.13
745,524807.5,0.0500,-7.57,39.84
746,530884.4,0.0500,-7.29,38.17
747,537031.8,0.0500,-7.02,35.09
748,543250.3,0.0500,-6.76,32.15
749,549540.9,0.0500,-6.49,29.94
750,555904.3,0.0500,-6.14,27.63
751,562341.3,0.0500,-5.94,23.06
752,568852.9,0.0500,-5.76,20.97
753,575439.9,0.0500,-5.53,18.09
754,582103.2,0.0500,-5.32,14.33
755,588843.7,0.0500,-5.21,10.42
756,595662.1,0.0500,-5.04,6.40
757,602559.6,0.0500,-4.81,4.44
758,609536.9,0.0500,-4.87,-1.77
759,616595.0,0.0500,-4.87,-3.88
760,623734.8,0.0500,-4.98,-7.83
761,630957.3,0.0500,-5.24,-11.66
762,638263.5,0.0500,-5.17,-15.93
763,645654.2,0.0500,-5.23,-19.86
764,653130.6,0.0500,-5.49,-22.97
765,660693.4,0.0500,-5.71,-26.33
766,668343.9,0.0500,-5.81,-29.79
767,676083.0,0.0500,-6.18,-33.20
768,683911.6,0.0500,-6.36,-34.99
769,691831.0,0.0500,-6.68,-38.54
770,699842.0,0.0500,-7.13,-39.34
771,707945.8,0.0500,-7.28,-43.46
772,716143.4,0.0500,-7.53,-45.44
773,724436.0,0.0500,-7.93,-47.35
774,732824.5,0.0500,-8.13,-49.97
775,741310.2,0.0500,-8.39,-51.47
776,749894.2,0.0500,-8.77,-53.11
777,758577.6,0.0500,-9.21,-52.31
778,767361.5,0.0500,-9.26,-57.00
779,776247.1,0.0500,-9.59,-57.99
780,785235.6,0.0500,-9.90,-59.03
781,794328.2,0.0500,-10.14,-61.04
782,803526.1,0.0500,-10.42,-61.45
783,812830.5,0.0500,-10.60,-63.26
784,822242.6,0.0500,-10.92,-63.86
785,831763.8,0.0500,-11.26,-64.74
786,841395.1,0.0500,-11.47,-66.06
787,851138.0,0.0500,-11.77,-67.15
788,860993.8,0.0500,-12.04,-67.51
789,870963.6,0.0500,-12.26,-68.18
790,881048.9,0.0500,-12.45,-69.05
791,891250.9,0.0500,-12.75,-72.34
792,901571.1,0.0500,-12.92,-71.03
793,912010.8,0.0500,-13.19,-70.86
794,922571.4,0.0500,-13.41,-72.65
795,933254.3,0.0500,-13.64,-73.12
796,944060.9,0.0500,-13.48,-74.22
797,954992.6,0.0500,-13.85,-72.91
798,966050.9,0.0500,-14.24,-75.21
799,977237.2,0.0500,-14.43,-75.11
800,988553.1,0.0500,-14.70,-75.89
801,1000000.0,0.0500,-14.74,-75.65
802,1011579.5,0.0500,-15.17,-76.63
803,1023293.0,0.0500,-15.20,-77.08
804,1035142.2,0.0500,-15.46,-77.24
805,1047128.5,0.0500,-15.64,-77.83
806,1059253.7,0.0500,-15.73,-78.88
807,1071519.3,0.0500,-16.02,-78.67
808,1083926.9,0.0500,-16.22,-78.69
809,1096478.2,0.0500,-16.42,-79.26
810,1109174.8,0.0500,-16.65,-80.70
811,1122018.5,0.0500,-16.83,-80.15
812,1135010.8,0.0500,-17.00,-80.82
813,1148153.6,0.0500,-17.13,-80.94
814,1161448.6,0.0500,-17.41,-81.34
815,1174897.6,0.0500,-17.49,-82.07
816,1188502.2,0.0500,-17.83,-81.20
817,1202264.4,0.0500,-17.60,-82.76
818,1216186.0,0.0500,-18.09,-82.30
819,1230268.8,0.0500,-18.10,-83.11
820,1244514.6,0.0500,-18.27,-83.28
821,1258925.4,0.0500,-18.32,-84.56
822,1273503.1,0.0500,-18.16,-84.73
823,1288249.6,0.0500,-18.92,-82.00
824,1303166.8,0.0500,-18.79,-84.82
825,1318256.7,0.0500,-18.97,-83.94
826,1333521.4,0.0500,-18.62,-85.58
827,1348962.9,0.0500,-19.41,-83.50
828,1364583.1,0.0500,-19.51,-85.16
829,1380384.3,0.0500,-19.73,-85.63
830,1396368.4,0.0500,-19.77,-86.13
831,1412537.5,0.0500,-20.04,-86.33
832,1428894.0,0.0500,-20.08,-87.81
833,1445439.8,0.0500,-20.30,-86.31
834,1462177.2,0.0500,-20.41,-86.05
835,1479108.4,0.0500,-20.52,-87.69
836,1496235.7,0.0500,-20.71,-88.33
837,1513561.2,0.0500,-20.92,-88.42
838,1531087.5,0.0500,-21.10,-86.90
839,1548816.6,0.0500,-21.05,-88.27
840,1566751.1,0.0500,-21.20,-88.69
841,1584893.2,0.0500,-21.43,-88.25
842,1603245.4,0.0500,-21.39,-90.31
843,1621810.1,0.0500,-21.84,-88.77
844,1640589.8,0.0500,-21.58,-88.42
845,1659586.9,0.0500,-21.88,-89.96
846,1678804.0,0.0500,-22.00,-89.97
847,1698243.7,0.0500,-22.36,-91.26
848,1717908.4,0.0500,-22.28,-90.59
849,1737800.8,0.0500,-22.39,-89.91
850,1757923.6,0.0500,-22.57,-91.37
851,1778279.4,0.0500,-22.70,-92.51
852,1798870.9,0.0500,-22.85,-91.36
853,1819700.9,0.0500,-22.66,-90.95
854,1840772.0,0.0500,-23.04,-91.95
855,1862087.1,0.0500,-23.24,-91.84
856,1883649.1,0.0500,-23.68,-93.43
857,1905460.7,0.0500,-23.40,-92.64
858,1927524.9,0.0500,-23.44,-92.15
859,1949844.6,0.0500,-23.70,-93.28
860,1972422.7,0.0500,-23.66,-92.77
861,1995262.3,0.0500,-23.90,-93.67
862,2018366.4,0.0500,-24.16,-93.33
863,2041737.9,0.0500,-24.19,-94.13
864,2065380.2,0.0500,-24.39,-95.91
865,2089296.1,0.0500,-24.38,-95.79
866,2113489.0,0.0500,-24.70,-94.21
867,2137962.1,0.0500,-24.71,-95.68
868,2162718.5,0.0500,-24.68,-95.86
869,2187761.6,0.0500,-24.88,-96.13
870,2213094.7,0.0500,-25.09,-96.14
871,2238721.1,0.0500,-25.10,-96.67
872,2264644.3,0.0500,-24.98,-96.03
873,2290867.7,0.0500,-25.56,-97.81
874,2317394.6,0.0500,-26.33,-98.16
875,2344228.8,0.0500,-25.67,-96.78
876,2371373.7,0.0500,-25.35,-100.37
877,2398832.9,0.0500,-25.95,-97.53
878,2426610.1,0.0500,-26.00,-97.41
879,2454708.9,0.0500,-26.24,-100.49
880,2483133.1,0.0500,-26.39,-98.95
881,2511886.4,0.0500,-26.35,-101.67
882,2540972.7,0.0500,-26.53,-100.22
883,2570395.8,0.0500,-26.48,-99.98
884,2600159.6,0.0500,-26.72,-101.84
885,2630268.0,0.0500,-26.85,-101.51
886,2660725.1,0.0500,-27.04,-102.45
887,2691534.8,0.0500,-26.86,-103.37
888,2722701.3,0.0500,-27.25,-105.04
889,2754228.7,0.0500,-27.46,-103.41
890,2786121.2,0.0500,-27.43,-106.62
891,2818382.9,0.0500,-27.76,-105.50
892,2851018.3,0.0500,-27.63,-101.26
893,2884031.5,0.0500,-28.14,-102.23
894,2917427.0,0.0500,-28.38,-105.82
895,2951209.2,0.0500,-28.24,-104.79
896,2985382.6,0.0500,-28.67,-105.92
897,3019951.7,0.0500,-28.65,-107.45
898,3054921.1,0.0500,-28.97,-108.06
899,3090295.4,0.0500,-29.21,-109.99
900,3126079.4,0.0500,-29.06,-106.13
901,3162277.7,0.0500,-29.06,-107.58
902,3198895.1,0.0500,-29.24,-108.31
903,3235936.6,0.0500,-27.97,-111.59
904,3273406.9,0.0500,-29.32,-110.24
905,3311311.2,0.0500,-29.83,-109.97
906,3349654.4,0.0500,-29.70,-111.19
907,3388441.6,0.0500,-29.99,-112.65
908,3427677.9,0.0500,-30.24,-113.68
909,3467368.5,0.0500,-30.22,-114.35
910,3507518.7,0.0500,-30.52,-114.99
911,3548133.9,0.0500,-30.77,-118.01
912,3589219.3,0.0500,-30.39,-116.57
913,3630780.5,0.0500,-31.03,-118.12
914,3672823.0,0.0500,-31.24,-117.92
915,3715352.3,0.0500,-31.82,-120.74
916,3758374.0,0.0500,-32.74,-123.19
917,3801894.0,0.0500,-33.81,-131.77
918,3845917.8,0.0500,-34.71,-130.17
919,3890451.4,0.0500,-33.96,-117.64
920,3935500.8,0.0500,-34.02,-111.16
921,3981071.7,0.0500,-34.05,-103.99
922,4027170.3,0.0500,-33.28,-101.23
923,4073802.8,0.0500,-32.15,-100.99
924,4120975.2,0.0500,-31.46,-104.89
925,4168693.8,0.0500,-31.23,-105.14
926,4216965.0,0.0500,-30.21,-103.93
927,4265795.2,0.0500,-31.41,-115.24
928,4315190.8,0.0500,-31.13,-113.63
929,4365158.3,0.0500,-31.25,-116.96
930,4415704.5,0.0500,-31.32,-120.49
931,4466835.9,0.0500,-31.24,-122.88
932,4518559.4,0.0500,-31.63,-122.30
933,4570881.9,0.0500,-31.32,-126.82
934,4623810.2,0.0500,-31.49,-127.89
935,4677351.4,0.0500,-31.51,-130.43
936,4731512.6,0.0500,-31.41,-130.36
937,4786300.9,0.0500,-31.67,-130.35
938,4841723.7,0.0500,-32.11,-135.20
939,4897788.2,0.0500,-31.62,-137.00
940,4954501.9,0.0500,-31.77,-137.06
941,5011872.3,0.0500,-31.92,-137.68
942,5069907.1,0.0500,-31.81,-142.21
943,5128613.8,0.0500,-31.69,-142.90
944,5188000.4,0.0500,-31.78,-142.97
945,5248074.6,0.0500,-32.33,-147.42
946,5308844.4,0.0500,-31.62,-147.03
947,5370318.0,0.0500,-31.86,-147.82
948,5432503.3,0.0500,-32.42,-152.44
949,5495408.7,0.0500,-31.84,-151.24
950,5559042.6,0.0500,-31.84,-154.03
951,5623413.3,0.0500,-31.09,-154.46
952,5688529.3,0.0500,-31.33,-155.98
953,5754399.4,0.0500,-31.48,-162.89
954,5821032.2,0.0500,-31.44,-162.49
955,5888436.6,0.0500,-31.60,-161.26
956,5956621.4,0.0500,-31.29,-169.24
957,6025595.9,0.0500,-31.39,189.59
958,6095369.0,0.0500,-30.98,-169.14
959,6165950.0,0.0500,-30.96,188.75
960,6237348.4,0.0500,-30.91,187.65
961,6309573.4,0.0500,-30.77,184.74
962,6382634.9,0.0500,-30.57,180.74
963,6456542.3,0.0500,-30.53,180.77
964,6531305.5,0.0500,-29.62,172.21
965,6606934.5,0.0500,-29.98,176.46
966,6683439.2,0.0500,-29.62,176.10
967,6760829.8,0.0500,-29.41,171.92
968,6839116.5,0.0500,-29.35,171.15
969,6918309.7,0.0500,-29.33,169.86
970,6998420.0,0.0500,-29.25,166.98
971,7079457.8,0.0500,-28.75,164.98
972,7161434.1,0.0500,-28.87,163.78
973,7244359.6,0.0500,-27.53,167.05
974,7328245.3,0.0500,-28.09,162.31
975,7413102.4,0.0500,-28.38,158.51
976,7498942.1,0.0500,-27.91,157.57
977,7585775.8,0.0500,-27.77,155.91
978,7673614.9,0.0500,-27.18,153.85
979,7762471.2,0.0500,-27.05,152.32
980,7852356.3,0.0500,-26.66,151.10
981,7943282.3,0.0500,-26.44,149.44
982,8035261.2,0.0500,-26.09,147.60
983,8128305.2,0.0500,-25.96,146.46
984,8222426.5,0.0500,-25.66,143.54
985,8317637.7,0.0500,-25.21,143.25
986,8413951.4,0.0500,-24.79,141.78
987,8511380.4,0.0500,-24.53,138.98
988,8609937.5,0.0500,-24.12,138.47
989,8709635.9,0.0500,-23.78,133.82
990,8810488.7,0.0500,-23.74,128.91
991,8912509.4,0.0500,-23.34,128.27
992,9015711.4,0.0500,-23.41,123.28
993,9120108.4,0.0500,-23.52,120.46
994,9225714.3,0.0500,-23.79,118.93
995,9332543.0,0.0500,-24.08,120.01
996,9440608.8,0.0500,-23.88,120.57
997,9549925.9,0.0500,-23.73,121.84
998,9660508.8,0.0500,-23.30,121.43
999,9772372.2,0.0500,-22.91,120.63
1000,9885530.9,0.0500,-22.35,119.34
1001,10000000.0,0.0500,-22.07,116.53
