#, Frequency (Hz), Amplitude (Vpp), Gain (dB), Phase (°)
1,100.0,0.0500,-67.38,-10.97
2,101.2,0.0500,-66.97,0.22
3,102.3,0.0500,-69.47,-13.24
4,103.5,0.0500,-70.70,-7.39
5,104.7,0.0500,-66.68,10.44
6,105.9,0.0500,-66.73,-2.18
7,107.2,0.0500,-68.82,9.81
8,108.4,0.0500,-67.36,-2.40
9,109.6,0.0500,-67.53,-3.87
10,110.9,0.0500,-67.12,3.02
11,112.2,0.0500,-67.01,-3.99
12,113.5,0.0500,-69.79,7.19
13,114.8,0.0500,-67.91,7.70
14,116.1,0.0500,-68.84,-3.33
15,117.5,0.0500,-66.93,-3.21
16,118.9,0.0500,-68.04,-8.39
17,120.2,0.0500,-67.96,-2.36
18,121.6,0.0500,-67.26,4.29
19,123.0,0.0500,-68.64,-5.74
20,124.5,0.0500,-68.35,11.48
21,125.9,0.0500,-68.15,-2.92
22,127.4,0.0500,-67.47,7.23
23,128.8,0.0500,-68.48,-3.31
24,130.3,0.0500,-69.90,2.32
25,131.8,0.0500,-68.06,0.73
26,133.4,0.0500,-68.13,5.65
27,134.9,0.0500,-69.81,-3.57
28,136.5,0.0500,-67.64,7.38
29,138.0,0.0500,-67.25,-7.43
30,139.6,0.0500,-67.94,2.80
31,141.3,0.0500,-67.84,-1.02
32,142.9,0.0500,-66.97,-5.46
33,144.5,0.0500,-68.65,4.67
34,146.2,0.0500,-68.44,-0.59
35,147.9,0.0500,-69.51,1.59
36,149.6,0.0500,-69.14,1.29
37,151.4,0.0500,-70.63,6.25
38,153.1,0.0500,-70.07,7.68
39,154.9,0.0500,-69.20,-2.75
40,156.7,0.0500,-67.84,-7.57
41,158.5,0.0500,-68.55,3.17
42,160.3,0.0500,-69.98,-8.15
43,162.2,0.0500,-67.99,-1.29
44,164.1,0.0500,-68.43,2.30
45,166.0,0.0500,-68.60,-3.11
46,167.9,0.0500,-69.22,-1.74
47,169.8,0.0500,-67.56,-4.68
48,171.8,0.0500,-68.43,-1.13
49,173.8,0.0500,-70.65,-12.67
50,175.8,0.0500,-68.47,-7.30
51,177.8,0.0500,-68.64,6.56
52,179.9,0.0500,-68.34,4.44
53,182.0,0.0500,-68.61,10.36
54,184.1,0.0500,-68.25,2.87
55,186.2,0.0500,-68.58,3.74
56,188.4,0.0500,-68.77,-6.99
57,190.5,0.0500,-68.27,10.41
58,192.8,0.0500,-67.70,4.24
59,195.0,0.0500,-68.57,8.80
60,197.2,0.0500,-68.93,5.32
61,199.5,0.0500,-68.64,4.40
62,201.8,0.0500,-68.09,7.33
63,204.2,0.0500,-69.26,-4.04
64,206.5,0.0500,-70.89,1.26
65,208.9,0.0500,-69.05,19.13
66,211.3,0.0500,-67.76,-7.01
67,213.8,0.0500,-67.59,4.12
68,216.3,0.0500,-67.92,-0.64
69,218.8,0.0500,-67.99,7.38
70,221.3,0.0500,-67.78,2.44
71,223.9,0.0500,-67.91,3.34
72,226.5,0.0500,-68.66,0.66
73,229.1,0.0500,-67.85,6.16
74,231.7,0.0500,-67.39,1.86
75,234.4,0.0500,-68.25,1.62
76,237.1,0.0500,-68.81,-0.94
77,239.9,0.0500,-67.68,1.20
78,242.7,0.0500,-68.99,-9.29
79,245.5,0.0500,-68.63,12.84
80,248.3,0.0500,-68.44,12.20
81,251.2,0.0500,-68.03,11.90
82,254.1,0.0500,-68.10,4.71
83,257.0,0.0500,-67.38,-2.93
84,260.0,0.0500,-67.86,5.68
85,263.0,0.0500,-67.15,-2.68
86,266.1,0.0500,-68.41,12.38
87,269.2,0.0500,-69.58,-3.89
88,272.3,0.0500,-68.18,12.21
89,275.4,0.0500,-68.60,-4.33
90,278.6,0.0500,-68.28,11.32
91,281.8,0.0500,-67.91,3.10
92,285.1,0.0500,-68.18,14.95
93,288.4,0.0500,-68.21,-3.78
94,291.7,0.0500,-67.73,6.64
95,295.1,0.0500,-67.41,1.57
96,298.5,0.0500,-70.25,1.83
97,302.0,0.0500,-68.95,6.61
98,305.5,0.0500,-67.83,6.28
99,309.0,0.0500,-67.76,6.60
100,312.6,0.0500,-68.33,4.14
101,316.2,0.0500,-69.34,-0.61
102,319.9,0.0500,-68.45,2.66
103,323.6,0.0500,-66.97,8.49
104,327.3,0.0500,-68.88,6.37
105,331.1,0.0500,-68.89,9.42
106,335.0,0.0500,-67.43,11.18
107,338.8,0.0500,-68.43,3.34
108,342.8,0.0500,-68.86,8.02
109,346.7,0.0500,-67.66,7.25
110,350.8,0.0500,-67.11,11.63
111,354.8,0.0500,-68.84,1.12
112,358.9,0.0500,-69.20,4.76
113,363.1,0.0500,-69.36,1.41
114,367.3,0.0500,-68.19,-4.60
115,371.5,0.0500,-68.41,4.00
116,375.8,0.0500,-67.99,-8.41
117,380.2,0.0500,-68.57,-2.06
118,384.6,0.0500,-68.19,9.24
119,389.0,0.0500,-69.06,5.02
120,393.6,0.0500,-67.27,9.32
121,398.1,0.0500,-68.86,0.38
122,402.7,0.0500,-68.48,-4.21
123,407.4,0.0500,-68.34,6.47
124,412.1,0.0500,-68.02,2.59
125,416.9,0.0500,-69.25,-2.93
126,421.7,0.0500,-68.30,9.89
127,426.6,0.0500,-68.30,5.31
128,431.5,0.0500,-67.45,-0.74
129,436.5,0.0500,-69.83,-1.55
130,441.6,0.0500,-68.80,9.21
131,446.7,0.0500,-67.68,-2.79
132,451.9,0.0500,-68.13,5.26
133,457.1,0.0500,-67.75,6.69
134,462.4,0.0500,-69.51,8.35
135,467.7,0.0500,-68.56,-1.40
136,473.2,0.0500,-67.99,4.92
137,478.6,0.0500,-67.78,11.00
138,484.2,0.0500,-68.08,9.28
139,489.8,0.0500,-67.55,6.85
140,495.5,0.0500,-69.09,2.17
141,501.2,0.0500,-67.84,-2.87
142,507.0,0.0500,-68.74,1.21
143,512.9,0.0500,-68.45,13.00
144,518.8,0.0500,-68.08,12.14
145,524.8,0.0500,-68.70,8.12
146,530.9,0.0500,-68.24,13.10
147,537.0,0.0500,-69.04,7.45
148,543.3,0.0500,-68.91,7.77
149,549.5,0.0500,-68.26,7.25
150,555.9,0.0500,-69.37,10.35
151,562.3,0.0500,-69.31,-1.02
152,568.9,0.0500,-67.27,3.73
153,575.4,0.0500,-68.18,10.61
154,582.1,0.0500,-69.43,8.57
155,588.8,0.0500,-68.76,7.13
156,595.7,0.0500,-67.72,5.32
157,602.6,0.0500,-67.97,1.30
158,609.5,0.0500,-68.25,13.55
159,616.6,0.0500,-68.26,8.33
160,623.7,0.0500,-68.27,15.59
161,631.0,0.0500,-68.53,3.81
162,638.3,0.0500,-68.36,6.23
163,645.7,0.0500,-66.55,12.03
164,653.1,0.0500,-68.73,5.78
165,660.7,0.0500,-68.34,13.05
166,668.3,0.0500,-67.65,9.42
167,676.1,0.0500,-67.72,9.21
168,683.9,0.0500,-67.31,11.28
169,691.8,0.0500,-68.73,9.25
170,699.8,0.0500,-67.82,7.77
171,707.9,0.0500,-67.98,10.74
172,716.1,0.0500,-67.85,13.42
173,724.4,0.0500,-68.32,16.14
174,732.8,0.0500,-67.37,6.97
175,741.3,0.0500,-68.75,14.63
176,749.9,0.0500,-68.83,8.27
177,758.6,0.0500,-68.28,10.47
178,767.4,0.0500,-67.09,15.07
179,776.2,0.0500,-67.85,5.90
180,785.2,0.0500,-68.35,5.15
181,794.3,0.0500,-67.68,9.45
182,803.5,0.0500,-68.05,7.08
183,812.8,0.0500,-68.41,4.10
184,822.2,0.0500,-66.76,14.24
185,831.8,0.0500,-68.11,14.03
186,841.4,0.0500,-68.43,15.41
187,851.1,0.0500,-68.68,12.85
188,861.0,0.0500,-68.74,15.22
189,871.0,0.0500,-67.70,19.75
190,881.0,0.0500,-67.68,-4.33
191,891.3,0.0500,-67.91,15.99
192,901.6,0.0500,-68.02,14.77
193,912.0,0.0500,-69.15,17.41
194,922.6,0.0500,-69.17,11.59
195,933.3,0.0500,-69.36,7.45
196,944.1,0.0500,-67.79,12.50
197,955.0,0.0500,-67.22,17.47
198,966.1,0.0500,-68.32,11.67
199,977.2,0.0500,-68.14,19.46
200,988.6,0.0500,-67.34,15.96
201,1000.0,0.0500,-68.76,12.10
202,1011.6,0.0500,-67.17,10.24
203,1023.3,0.0500,-67.01,15.24
204,1035.1,0.0500,-67.26,14.82
205,1047.1,0.0500,-68.19,7.13
206,1059.3,0.0500,-67.54,15.85
207,1071.5,0.0500,-68.36,28.10
208,1083.9,0.0500,-67.31,22.05
209,1096.5,0.0500,-68.81,8.88
210,1109.2,0.0500,-68.38,14.11
211,1122.0,0.0500,-67.73,20.74
212,1135.0,0.0500,-67.58,12.03
213,1148.2,0.0500,-67.78,18.57
214,1161.4,0.0500,-67.89,21.98
215,1174.9,0.0500,-67.71,15.59
216,1188.5,0.0500,-68.76,9.53
217,1202.3,0.0500,-68.45,17.99
218,1216.2,0.0500,-67.89,19.26
219,1230.3,0.0500,-67.91,13.31
220,1244.5,0.0500,-69.77,17.40
221,1258.9,0.0500,-67.11,18.59
222,1273.5,0.0500,-66.32,15.48
223,1288.2,0.0500,-67.73,14.47
224,1303.2,0.0500,-67.60,11.30
225,1318.3,0.0500,-67.10,11.04
226,1333.5,0.0500,-67.95,5.82
227,1349.0,0.0500,-68.38,11.86
228,1364.6,0.0500,-68.95,27.91
229,1380.4,0.0500,-66.99,21.85
230,1396.4,0.0500,-68.35,13.09
231,1412.5,0.0500,-66.32,20.62
232,1428.9,0.0500,-67.13,12.80
233,1445.4,0.0500,-67.93,15.14
234,1462.2,0.0500,-67.99,18.04
235,1479.1,0.0500,-66.35,15.70
236,1496.2,0.0500,-68.02,24.94
237,1513.6,0.0500,-67.34,20.27
238,1531.1,0.0500,-67.74,26.96
239,1548.8,0.0500,-67.08,20.91
240,1566.8,0.0500,-68.26,19.38
241,1584.9,0.0500,-66.56,20.64
242,1603.2,0.0500,-66.53,20.28
243,1621.8,0.0500,-67.15,19.75
244,1640.6,0.0500,-67.60,15.52
245,1659.6,0.0500,-66.51,18.19
246,1678.8,0.0500,-66.47,30.64
247,1698.2,0.0500,-66.23,21.88
248,1717.9,0.0500,-67.25,18.84
249,1737.8,0.0500,-67.23,19.74
250,1757.9,0.0500,-67.90,26.00
251,1778.3,0.0500,-66.42,25.57
252,1798.9,0.0500,-67.20,23.43
253,1819.7,0.0500,-67.90,19.87
254,1840.8,0.0500,-66.60,19.73
255,1862.1,0.0500,-67.51,19.60
256,1883.6,0.0500,-67.54,31.92
257,1905.5,0.0500,-66.74,24.38
258,1927.5,0.0500,-68.54,26.49
259,1949.8,0.0500,-67.30,21.18
260,1972.4,0.0500,-67.56,11.51
261,1995.3,0.0500,-67.47,26.74
262,2018.4,0.0500,-66.85,35.40
263,2041.7,0.0500,-66.24,27.77
264,2065.4,0.0500,-66.74,23.55
265,2089.3,0.0500,-68.54,22.96
266,2113.5,0.0500,-68.72,23.79
267,2138.0,0.0500,-65.88,29.53
268,2162.7,0.0500,-66.19,26.17
269,2187.8,0.0500,-67.62,29.63
270,2213.1,0.0500,-66.01,34.17
271,2238.7,0.0500,-67.08,36.41
272,2264.6,0.0500,-66.09,27.39
273,2290.9,0.0500,-67.58,24.92
274,2317.4,0.0500,-65.77,27.69
275,2344.2,0.0500,-67.34,32.28
276,2371.4,0.0500,-67.09,33.52
277,2398.8,0.0500,-66.40,24.30
278,2426.6,0.0500,-66.92,24.97
279,2454.7,0.0500,-65.55,30.69
280,2483.1,0.0500,-67.02,18.72
281,2511.9,0.0500,-67.61,32.99
282,2541.0,0.0500,-66.73,28.14
283,2570.4,0.0500,-66.48,35.95
284,2600.2,0.0500,-65.96,36.67
285,2630.3,0.0500,-66.11,34.13
286,2660.7,0.0500,-65.81,31.55
287,2691.5,0.0500,-65.98,33.49
288,2722.7,0.0500,-66.35,34.96
289,2754.2,0.0500,-66.03,31.94
290,2786.1,0.0500,-65.78,29.88
291,2818.4,0.0500,-65.74,31.37
292,2851.0,0.0500,-66.04,31.65
293,2884.0,0.0500,-65.90,33.23
294,2917.4,0.0500,-65.31,31.96
295,2951.2,0.0500,-66.49,37.96
296,2985.4,0.0500,-66.62,36.65
297,3020.0,0.0500,-65.80,30.65
298,3054.9,0.0500,-66.24,37.64
299,3090.3,0.0500,-65.86,39.28
300,3126.1,0.0500,-65.63,36.07
301,3162.3,0.0500,-65.53,33.05
302,3198.9,0.0500,-65.00,40.70
303,3235.9,0.0500,-66.05,31.88
304,3273.4,0.0500,-65.34,34.64
305,3311.3,0.0500,-65.68,39.23
306,3349.7,0.0500,-65.64,37.22
307,3388.4,0.0500,-64.16,39.90
308,3427.7,0.0500,-65.61,29.76
309,3467.4,0.0500,-65.05,36.01
310,3507.5,0.0500,-65.45,39.54
311,3548.1,0.0500,-65.53,39.83
312,3589.2,0.0500,-64.89,40.59
313,3630.8,0.0500,-65.18,33.51
314,3672.8,0.0500,-64.75,33.83
315,3715.4,0.0500,-64.23,44.65
316,3758.4,0.0500,-64.05,36.41
317,3801.9,0.0500,-66.03,47.65
318,3845.9,0.0500,-65.24,41.09
319,3890.5,0.0500,-64.93,37.53
320,3935.5,0.0500,-65.15,44.70
321,3981.1,0.0500,-64.32,36.92
322,4027.2,0.0500,-64.04,42.21
323,4073.8,0.0500,-64.33,36.95
324,4121.0,0.0500,-63.43,38.20
325,4168.7,0.0500,-65.12,42.23
326,4217.0,0.0500,-63.83,48.20
327,4265.8,0.0500,-64.46,47.84
328,4315.2,0.0500,-64.40,41.83
329,4365.2,0.0500,-64.56,38.97
330,4415.7,0.0500,-64.61,42.10
331,4466.8,0.0500,-64.27,42.24
332,4518.6,0.0500,-64.05,46.54
333,4570.9,0.0500,-63.51,46.19
334,4623.8,0.0500,-64.70,44.73
335,4677.4,0.0500,-64.27,43.83
336,4731.5,0.0500,-63.99,44.67
337,4786.3,0.0500,-64.71,49.71
338,4841.7,0.0500,-64.71,43.72
339,4897.8,0.0500,-64.00,50.35
340,4954.5,0.0500,-63.89,45.28
341,5011.9,0.0500,-63.75,47.19
342,5069.9,0.0500,-64.00,49.54
343,5128.6,0.0500,-63.10,48.35
344,5188.0,0.0500,-63.43,47.43
345,5248.1,0.0500,-63.29,47.84
346,5308.8,0.0500,-62.84,45.77
347,5370.3,0.0500,-62.72,51.40
348,5432.5,0.0500,-63.34,50.30
349,5495.4,0.0500,-62.99,44.83
350,5559.0,0.0500,-62.85,54.25
351,5623.4,0.0500,-62.86,49.17
352,5688.5,0.0500,-63.45,50.69
353,5754.4,0.0500,-62.91,47.59
354,5821.0,0.0500,-62.95,51.09
355,5888.4,0.0500,-62.78,50.52
356,5956.6,0.0500,-62.74,49.14
357,6025.6,0.0500,-62.53,49.85
358,6095.4,0.0500,-62.72,53.08
359,6166.0,0.0500,-61.86,53.58
360,6237.3,0.0500,-62.95,49.78
361,6309.6,0.0500,-62.47,51.18
362,6382.6,0.0500,-62.77,48.88
363,6456.5,0.0500,-61.85,49.82
364,6531.3,0.0500,-62.96,52.26
365,6606.9,0.0500,-62.21,53.00
366,6683.4,0.0500,-61.74,55.73
367,6760.8,0.0500,-62.38,49.85
368,6839.1,0.0500,-62.17,54.40
369,6918.3,0.0500,-62.01,54.81
370,6998.4,0.0500,-61.98,51.40
371,7079.5,0.0500,-61.75,54.47
372,7161.4,0.0500,-61.81,51.79
373,7244.4,0.0500,-61.86,58.30
374,7328.2,0.0500,-61.61,55.25
375,7413.1,0.0500,-61.19,54.67
376,7498.9,0.0500,-61.30,54.78
377,7585.8,0.0500,-61.90,51.81
378,7673.6,0.0500,-61.24,57.14
379,7762.5,0.0500,-61.36,51.08
380,7852.4,0.0500,-60.92,56.96
381,7943.3,0.0500,-60.74,53.42
382,8035.3,0.0500,-61.16,53.73
383,8128.3,0.0500,-61.05,54.13
384,8222.4,0.0500,-60.89,53.32
385,8317.6,0.0500,-61.12,56.73
386,8414.0,0.0500,-60.66,54.51
387,8511.4,0.0500,-60.38,53.78
388,8609.9,0.0500,-60.89,54.42
389,8709.6,0.0500,-60.53,55.28
390,8810.5,0.0500,-60.32,56.66
391,8912.5,0.0500,-60.37,53.12
392,9015.7,0.0500,-60.21,57.25
393,9120.1,0.0500,-59.86,59.30
394,9225.7,0.0500,-59.74,59.53
395,9332.5,0.0500,-60.22,56.58
396,9440.6,0.0500,-59.91,58.76
397,9549.9,0.0500,-59.35,59.21
398,9660.5,0.0500,-59.72,57.66
399,9772.4,0.0500,-59.38,60.11
400,9885.5,0.0500,-59.66,60.29
401,10000.0,0.0500,-59.82,59.90
402,10115.8,0.0500,-59.18,59.37
403,10232.9,0.0500,-59.30,59.46
404,10351.4,0.0500,-59.41,59.20
405,10471.3,0.0500,-59.17,57.62
406,10592.5,0.0500,-59.18,58.94
407,10715.2,0.0500,-58.99,59.05
408,10839.3,0.0500,-58.83,62.30
409,10964.8,0.0500,-59.42,60.48
410,11091.7,0.0500,-58.90,61.52
411,11220.2,0.0500,-58.60,57.16
412,11350.1,0.0500,-58.67,61.37
413,11481.5,0.0500,-58.29,58.91
414,11614.5,0.0500,-58.37,59.85
415,11749.0,0.0500,-58.23,57.07
416,11885.0,0.0500,-58.35,62.49
417,12022.6,0.0500,-58.30,59.65
418,12161.9,0.0500,-58.06,60.06
419,12302.7,0.0500,-58.32,60.31
420,12445.1,0.0500,-57.92,60.28
421,12589.3,0.0500,-57.79,59.48
422,12735.0,0.0500,-57.84,59.93
423,12882.5,0.0500,-57.92,61.20
424,13031.7,0.0500,-57.62,59.97
425,13182.6,0.0500,-57.24,61.12
426,13335.2,0.0500,-57.59,61.06
427,13489.6,0.0500,-57.59,60.95
428,13645.8,0.0500,-57.20,59.80
429,13803.8,0.0500,-57.46,59.75
430,13963.7,0.0500,-57.31,62.93
431,14125.4,0.0500,-57.40,60.89
432,14288.9,0.0500,-57.24,60.62
433,14454.4,0.0500,-57.25,60.79
434,14621.8,0.0500,-56.81,61.07
435,14791.1,0.0500,-56.95,60.58
436,14962.4,0.0500,-56.96,63.16
437,15135.6,0.0500,-56.99,60.92
438,15310.9,0.0500,-56.61,63.16
439,15488.2,0.0500,-56.63,60.48
440,15667.5,0.0500,-56.44,64.08
441,15848.9,0.0500,-56.11,62.40
442,16032.5,0.0500,-56.53,60.90
443,16218.1,0.0500,-56.29,61.89
444,16405.9,0.0500,-56.01,61.72
445,16595.9,0.0500,-56.12,62.12
446,16788.0,0.0500,-55.87,65.06
447,16982.4,0.0500,-55.98,63.12
448,17179.1,0.0500,-55.91,61.19
449,17378.0,0.0500,-55.98,62.18
450,17579.2,0.0500,-55.92,61.95
451,17782.8,0.0500,-55.80,62.41
452,17988.7,0.0500,-55.50,62.37
453,18197.0,0.0500,-55.55,63.12
454,18407.7,0.0500,-55.59,62.19
455,18620.9,0.0500,-55.20,63.09
456,18836.5,0.0500,-55.07,62.81
457,19054.6,0.0500,-55.31,61.83
458,19275.2,0.0500,-55.18,62.96
459,19498.4,0.0500,-55.46,60.13
460,19724.2,0.0500,-55.35,62.95
461,19952.6,0.0500,-54.99,62.57
462,20183.7,0.0500,-54.99,62.02
463,20417.4,0.0500,-54.72,63.44
464,20653.8,0.0500,-54.73,64.69
465,20893.0,0.0500,-54.61,63.08
466,21134.9,0.0500,-54.38,63.20
467,21379.6,0.0500,-54.61,62.89
468,21627.2,0.0500,-54.47,63.14
469,21877.6,0.0500,-54.25,63.05
470,22130.9,0.0500,-54.44,63.99
471,22387.2,0.0500,-54.40,62.84
472,22646.4,0.0500,-54.22,64.19
473,22908.7,0.0500,-54.11,63.89
474,23173.9,0.0500,-53.82,64.60
475,23442.3,0.0500,-53.95,64.27
476,23713.7,0.0500,-53.80,62.58
477,23988.3,0.0500,-53.76,63.54
478,24266.1,0.0500,-53.62,62.71
479,24547.1,0.0500,-53.62,63.31
480,24831.3,0.0500,-53.68,64.21
481,25118.9,0.0500,-53.41,63.69
482,25409.7,0.0500,-53.33,65.40
483,25704.0,0.0500,-53.36,64.57
484,26001.6,0.0500,-53.16,65.11
485,26302.7,0.0500,-53.20,64.03
486,26607.3,0.0500,-52.96,65.31
487,26915.3,0.0500,-53.06,62.81
488,27227.0,0.0500,-53.01,63.74
489,27542.3,0.0500,-52.88,65.18
490,27861.2,0.0500,-52.69,63.81
491,28183.8,0.0500,-52.83,64.44
492,28510.2,0.0500,-52.98,65.53
493,28840.3,0.0500,-52.58,66.53
494,29174.3,0.0500,-52.37,64.13
495,29512.1,0.0500,-52.38,65.77
496,29853.8,0.0500,-52.64,66.53
497,30199.5,0.0500,-52.48,66.01
498,30549.2,0.0500,-52.17,65.85
499,30903.0,0.0500,-52.11,66.06
500,31260.8,0.0500,-52.10,65.79
501,31622.8,0.0500,-51.98,63.72
502,31989.0,0.0500,-51.89,64.90
503,32359.4,0.0500,-51.65,65.79
504,32734.1,0.0500,-51.73,65.78
505,33113.1,0.0500,-51.99,64.12
506,33496.5,0.0500,-51.85,65.89
507,33884.4,0.0500,-51.53,63.65
508,34276.8,0.0500,-51.58,65.89
509,34673.7,0.0500,-51.38,65.76
510,35075.2,0.0500,-51.36,65.84
511,35481.3,0.0500,-51.06,65.58
512,35892.2,0.0500,-51.14,65.68
513,36307.8,0.0500,-51.03,65.52
514,36728.2,0.0500,-51.01,65.53
515,37153.5,0.0500,-50.68,67.86
516,37583.7,0.0500,-51.04,65.22
517,38018.9,0.0500,-50.70,65.68
518,38459.2,0.0500,-50.71,64.13
519,38904.5,0.0500,-50.69,67.33
520,39355.0,0.0500,-50.75,66.95
521,39810.7,0.0500,-50.59,66.78
522,40271.7,0.0500,-50.85,66.70
523,40738.0,0.0500,-50.53,64.50
524,41209.8,0.0500,-50.11,65.77
525,41686.9,0.0500,-49.88,65.31
526,42169.7,0.0500,-49.87,68.20
527,42658.0,0.0500,-50.38,65.42
528,43151.9,0.0500,-49.90,67.19
529,43651.6,0.0500,-49.87,65.81
530,44157.0,0.0500,-49.85,66.11
531,44668.4,0.0500,-50.01,67.11
532,45185.6,0.0500,-49.48,67.19
533,45708.8,0.0500,-49.33,66.62
534,46238.1,0.0500,-49.81,67.36
535,46773.5,0.0500,-49.45,66.96
536,47315.1,0.0500,-49.63,65.31
537,47863.0,0.0500,-49.42,67.77
538,48417.2,0.0500,-49.09,67.34
539,48977.9,0.0500,-49.21,66.91
540,49545.0,0.0500,-48.54,67.88
541,50118.7,0.0500,-49.09,68.13
542,50699.1,0.0500,-49.02,67.87
543,51286.1,0.0500,-48.77,67.32
544,51880.0,0.0500,-48.43,67.25
545,52480.7,0.0500,-48.61,68.38
546,53088.4,0.0500,-48.33,69.23
547,53703.2,0.0500,-48.52,67.93
548,54325.0,0.0500,-48.40,67.63
549,54954.1,0.0500,-48.29,65.94
550,55590.4,0.0500,-48.42,66.62
551,56234.1,0.0500,-48.11,67.73
552,56885.3,0.0500,-48.33,66.18
553,57544.0,0.0500,-48.23,66.15
554,58210.3,0.0500,-47.84,66.77
555,58884.4,0.0500,-47.88,68.67
556,59566.2,0.0500,-47.58,64.49
557,60256.0,0.0500,-47.79,67.95
558,60953.7,0.0500,-47.91,69.15
559,61659.5,0.0500,-47.57,67.04
560,62373.5,0.0500,-47.14,68.28
561,63095.7,0.0500,-47.64,68.67
562,63826.3,0.0500,-47.62,65.10
563,64565.4,0.0500,-47.27,66.65
564,65313.1,0.0500,-47.23,67.93
565,66069.3,0.0500,-46.76,66.57
566,66834.4,0.0500,-46.91,68.14
567,67608.3,0.0500,-47.39,67.29
568,68391.2,0.0500,-47.05,67.92
569,69183.1,0.0500,-47.41,68.06
570,69984.2,0.0500,-46.95,69.44
571,70794.6,0.0500,-46.62,67.35
572,71614.3,0.0500,-46.57,67.55
573,72443.6,0.0500,-46.63,68.25
574,73282.5,0.0500,-46.35,66.92
575,74131.0,0.0500,-46.54,68.13
576,74989.4,0.0500,-46.58,70.31
577,75857.8,0.0500,-46.41,68.28
578,76736.1,0.0500,-46.10,69.21
579,77624.7,0.0500,-46.32,68.84
580,78523.6,0.0500,-46.06,68.78
581,79432.8,0.0500,-46.01,68.76
582,80352.6,0.0500,-46.12,69.73
583,81283.1,0.0500,-45.88,68.39
584,82224.3,0.0500,-45.67,68.50
585,83176.4,0.0500,-45.65,68.80
586,84139.5,0.0500,-45.49,69.45
587,85113.8,0.0500,-45.46,67.99
588,86099.4,0.0500,-45.41,69.29
589,87096.4,0.0500,-45.27,69.62
590,88104.9,0.0500,-45.13,70.01
591,89125.1,0.0500,-45.15,69.63
592,90157.1,0.0500,-45.05,69.52
593,91201.1,0.0500,-44.88,69.00
594,92257.1,0.0500,-45.06,68.89
595,93325.4,0.0500,-44.76,70.00
596,94406.1,0.0500,-44.77,69.72
597,95499.3,0.0500,-44.63,69.20
598,96605.1,0.0500,-44.44,69.78
599,97723.7,0.0500,-44.43,69.76
600,98855.3,0.0500,-44.48,69.46
601,100000.0,0.0500,-44.44,69.66
602,101157.9,0.0500,-44.35,69.75
603,102329.3,0.0500,-44.04,70.43
604,103514.2,0.0500,-44.07,70.49
605,104712.9,0.0500,-43.83,69.63
606,105925.4,0.0500,-43.97,70.66
607,107151.9,0.0500,-43.78,70.44
608,108392.7,0.0500,-43.87,70.65
609,109647.8,0.0500,-43.66,70.84
610,110917.5,0.0500,-43.56,69.79
611,112201.8,0.0500,-43.48,70.78
612,113501.1,0.0500,-43.33,71.02
613,114815.4,0.0500,-43.31,70.56
614,116144.9,0.0500,-43.11,70.45
615,117489.8,0.0500,-43.18,70.63
616,118850.2,0.0500,-42.92,70.87
617,120226.4,0.0500,-43.04,71.00
618,121618.6,0.0500,-42.76,70.80
619,123026.9,0.0500,-42.75,71.19
620,124451.5,0.0500,-42.89,70.57
621,125892.5,0.0500,-42.38,71.90
622,127350.3,0.0500,-42.44,70.29
623,128825.0,0.0500,-42.48,72.00
624,130316.7,0.0500,-42.28,71.25
625,131825.7,0.0500,-42.22,69.97
626,133352.1,0.0500,-42.30,70.73
627,134896.3,0.0500,-42.09,70.89
628,136458.3,0.0500,-42.00,71.73
629,138038.4,0.0500,-41.96,71.25
630,139636.8,0.0500,-41.83,71.06
631,141253.8,0.0500,-41.70,70.89
632,142889.4,0.0500,-41.58,71.60
633,144544.0,0.0500,-41.60,70.92
634,146217.7,0.0500,-41.44,71.20
635,147910.8,0.0500,-41.44,71.51
636,149623.6,0.0500,-41.12,71.23
637,151356.1,0.0500,-41.34,70.86
638,153108.7,0.0500,-41.33,71.33
639,154881.7,0.0500,-41.00,72.25
640,156675.1,0.0500,-40.92,71.15
641,158489.3,0.0500,-40.81,70.69
642,160324.5,0.0500,-40.79,70.37
643,162181.0,0.0500,-40.82,70.90
644,164059.0,0.0500,-40.54,70.99
645,165958.7,0.0500,-40.43,72.23
646,167880.4,0.0500,-40.50,71.46
647,169824.4,0.0500,-40.32,72.06
648,171790.8,0.0500,-40.28,70.13
649,173780.1,0.0500,-40.19,70.61
650,175792.4,0.0500,-39.95,71.37
651,177827.9,0.0500,-39.80,71.03
652,179887.1,0.0500,-40.08,71.23
653,181970.1,0.0500,-39.85,69.58
654,184077.2,0.0500,-39.60,71.26
655,186208.7,0.0500,-39.46,70.23
656,188364.9,0.0500,-39.32,70.87
657,190546.1,0.0500,-39.37,71.16
658,192752.5,0.0500,-39.39,72.45
659,194984.5,0.0500,-39.15,71.53
660,197242.3,0.0500,-39.09,70.57
661,199526.2,0.0500,-38.89,71.32
662,201836.6,0.0500,-38.84,70.36
663,204173.8,0.0500,-38.88,69.89
664,206538.0,0.0500,-38.86,70.92
665,208929.6,0.0500,-38.73,71.17
666,211348.9,0.0500,-38.77,69.82
667,213796.2,0.0500,-38.37,71.21
668,216271.9,0.0500,-38.33,70.02
669,218776.2,0.0500,-38.31,71.62
670,221309.5,0.0500,-38.22,69.91
671,223872.1,0.0500,-38.22,69.82
672,226464.4,0.0500,-37.92,69.28
673,229086.8,0.0500,-37.93,69.89
674,231739.5,0.0500,-37.84,70.15
675,234422.9,0.0500,-37.64,70.53
676,237137.4,0.0500,-37.63,69.67
677,239883.3,0.0500,-37.54,70.06
678,242661.0,0.0500,-37.45,70.93
679,245470.9,0.0500,-37.32,70.04
680,248313.3,0.0500,-37.28,70.29
681,251188.6,0.0500,-37.27,70.48
682,254097.3,0.0500,-37.09,70.31
683,257039.6,0.0500,-37.01,67.94
684,260016.0,0.0500,-36.93,69.27
685,263026.8,0.0500,-36.77,70.04
686,266072.5,0.0500,-36.71,69.78
687,269153.5,0.0500,-36.54,69.91
688,272270.1,0.0500,-36.49,68.94
689,275422.9,0.0500,-36.42,69.43
690,278612.1,0.0500,-36.38,68.28
691,281838.3,0.0500,-36.25,68.41
692,285101.8,0.0500,-36.17,68.45
693,288403.2,0.0500,-36.16,68.71
694,291742.7,0.0500,-35.84,69.76
695,295120.9,0.0500,-36.06,69.01
696,298538.3,0.0500,-35.75,68.31
697,301995.2,0.0500,-35.59,68.57
698,305492.1,0.0500,-35.56,68.23
699,309029.5,0.0500,-35.50,68.91
700,312607.9,0.0500,-35.25,68.79
701,316227.8,0.0500,-35.25,69.06
702,319889.5,0.0500,-35.25,69.33
703,323593.7,0.0500,-34.95,68.43
704,327340.7,0.0500,-35.07,67.49
705,331131.1,0.0500,-34.96,65.04
706,334965.4,0.0500,-34.99,69.03
707,338844.2,0.0500,-34.70,68.00
708,342767.8,0.0500,-34.74,67.65
709,346736.9,0.0500,-34.71,67.94
710,350751.9,0.0500,-34.37,67.70
711,354813.4,0.0500,-34.46,68.20
712,358921.9,0.0500,-34.30,67.99
713,363078.1,0.0500,-34.19,67.06
714,367282.3,0.0500,-34.09,67.13
715,371535.2,0.0500,-34.01,66.46
716,375837.4,0.0500,-33.95,66.65
717,380189.4,0.0500,-33.80,65.81
718,384591.8,0.0500,-33.68,66.24
719,389045.1,0.0500,-33.78,66.20
720,393550.1,0.0500,-33.64,67.74
721,398107.2,0.0500,-33.35,66.74
722,402717.0,0.0500,-33.25,66.09
723,407380.3,0.0500,-33.29,66.10
724,412097.5,0.0500,-33.20,65.46
725,416869.4,0.0500,-33.27,66.28
726,421696.5,0.0500,-33.01,65.47
727,426579.5,0.0500,-32.90,64.93
728,431519.1,0.0500,-32.80,64.82
729,436515.8,0.0500,-32.69,64.28
730,441570.4,0.0500,-32.82,64.58
731,446683.6,0.0500,-32.61,65.24
732,451855.9,0.0500,-32.45,64.91
733,457088.2,0.0500,-32.30,64.19
734,462381.0,0.0500,-32.37,63.94
735,467735.1,0.0500,-32.10,63.00
736,473151.3,0.0500,-32.06,64.70
737,478630.1,0.0500,-31.91,63.29
738,484172.4,0.0500,-31.93,63.69
739,489778.8,0.0500,-31.78,63.32
740,495450.2,0.0500,-31.80,63.54
741,501187.2,0.0500,-31.70,63.34
742,506990.7,0.0500,-31.76,62.72
743,512861.4,0.0500,-31.43,61.42
744,518800.0,0.0500,-31.49,63.16
745,524807.5,0.0500,-31.25,60.71
746,530884.4,0.0500,-31.19,62.13
747,537031.8,0.0500,-31.15,61.32
748,543250.3,0.0500,-31.03,61.27
749,549540.9,0.0500,-30.92,61.53
750,555904.3,0.0500,-30.83,60.81
751,562341.3,0.0500,-30.93,60.50
752,568852.9,0.0500,-30.84,58.84
753,575439.9,0.0500,-30.51,60.69
754,582103.2,0.0500,-30.46,60.93
755,588843.7,0.0500,-30.37,59.22
756,595662.1,0.0500,-30.20,59.23
757,602559.6,0.0500,-30.27,60.72
758,609536.9,0.0500,-29.93,60.25
759,616595.0,0.0500,-30.13,59.38
760,623734.8,0.0500,-30.08,59.14
761,630957.3,0.0500,-29.89,57.35
762,638263.5,0.0500,-29.78,58.82
763,645654.2,0.0500,-29.64,58.16
764,653130.6,0.0500,-29.50,56.46
765,660693.4,0.0500,-29.25,57.85
766,668343.9,0.0500,-29.35,56.35
767,676083.0,0.0500,-29.20,56.82
768,683911.6,0.0500,-29.11,57.41
769,691831.0,0.0500,-29.08,57.09
770,699842.0,0.0500,-29.08,55.86
771,707945.8,0.0500,-28.82,56.26
772,716143.4,0.0500,-28.73,54.99
773,724436.0,0.0500,-28.72,54.38
774,732824.5,0.0500,-28.55,55.49
775,741310.2,0.0500,-28.60,53.21
776,749894.2,0.0500,-28.45,54.84
777,758577.6,0.0500,-28.36,54.47
778,767361.5,0.0500,-28.20,53.41
779,776247.1,0.0500,-28.14,53.24
780,785235.6,0.0500,-27.87,53.07
781,794328.2,0.0500,-27.93,52.75
782,803526.1,0.0500,-27.87,51.97
783,812830.5,0.0500,-27.76,51.90
784,822242.6,0.0500,-27.52,51.64
785,831763.8,0.0500,-27.98,53.68
786,841395.1,0.0500,-27.32,51.29
787,851138.0,0.0500,-27.38,51.27
788,860993.8,0.0500,-27.30,49.44
789,870963.6,0.0500,-27.26,50.25
790,881048.9,0.0500,-27.13,49.55
791,891250.9,0.0500,-26.97,48.62
792,901571.1,0.0500,-26.89,48.78
793,912010.8,0.0500,-26.87,47.86
794,922571.4,0.0500,-26.70,47.55
795,933254.3,0.0500,-26.80,49.04
796,944060.9,0.0500,-26.49,47.31
797,954992.6,0.0500,-26.45,46.67
798,966050.9,0.0500,-26.44,46.85
799,977237.2,0.0500,-26.28,45.70
800,988553.1,0.0500,-26.20,45.76
801,1000000.0,0.0500,-26.13,45.26
802,1011579.5,0.0500,-26.11,44.03
803,1023293.0,0.0500,-25.88,44.31
804,1035142.2,0.0500,-25.86,43.30
805,1047128.5,0.0500,-25.69,43.45
806,1059253.7,0.0500,-25.78,38.91
807,1071519.3,0.0500,-25.54,41.72
808,1083926.9,0.0500,-25.60,41.21
809,1096478.2,0.0500,-25.33,41.56
810,1109174.8,0.0500,-25.20,40.29
811,1122018.5,0.0500,-25.10,39.44
812,1135010.8,0.0500,-25.02,40.36
813,1148153.6,0.0500,-24.87,37.93
814,1161448.6,0.0500,-24.63,36.05
815,1174897.6,0.0500,-24.51,36.02
816,1188502.2,0.0500,-24.61,36.23
817,1202264.4,0.0500,-24.64,34.94
818,1216186.0,0.0500,-24.50,35.97
819,1230268.8,0.0500,-24.34,35.28
820,1244514.6,0.0500,-24.24,34.36
821,1258925.4,0.0500,-24.45,33.72
822,1273503.1,0.0500,-24.09,32.37
823,1288249.6,0.0500,-24.01,32.19
824,1303166.8,0.0500,-23.91,31.96
825,1318256.7,0.0500,-23.75,31.53
826,1333521.4,0.0500,-23.61,30.51
827,1348962.9,0.0500,-23.63,27.71
828,1364583.1,0.0500,-23.70,28.98
829,1380384.3,0.0500,-23.60,27.70
830,1396368.4,0.0500,-23.28,26.97
831,1412537.5,0.0500,-23.31,26.19
832,1428894.0,0.0500,-23.23,25.97
833,1445439.8,0.0500,-23.02,23.90
834,1462177.2,0.0500,-22.96,23.82
835,1479108.4,0.0500,-22.94,23.32
836,1496235.7,0.0500,-22.77,23.85
837,1513561.2,0.0500,-22.90,20.19
838,1531087.5,0.0500,-22.84,19.31
839,1548816.6,0.0500,-22.53,19.42
840,1566751.1,0.0500,-22.61,18.46
841,1584893.2,0.0500,-22.48,17.78
842,1603245.4,0.0500,-22.50,16.99
843,1621810.1,0.0500,-22.43,16.56
844,1640589.8,0.0500,-22.46,15.37
845,1659586.9,0.0500,-22.22,13.88
846,1678804.0,0.0500,-22.22,12.47
847,1698243.7,0.0500,-22.06,11.00
848,1717908.4,0.0500,-21.90,10.16
849,1737800.8,0.0500,-22.12,8.78
850,1757923.6,0.0500,-21.98,7.00
851,1778279.4,0.0500,-21.91,7.00
852,1798870.9,0.0500,-22.20,5.45
853,1819700.9,0.0500,-21.79,4.90
854,1840772.0,0.0500,-21.84,3.15
855,1862087.1,0.0500,-21.73,3.98
856,1883649.1,0.0500,-22.06,2.30
857,1905460.7,0.0500,-21.81,0.12
858,1927524.9,0.0500,-21.76,-2.26
859,1949844.6,0.0500,-21.75,-2.92
860,1972422.7,0.0500,-21.69,-2.89
861,1995262.3,0.0500,-21.66,-5.12
862,2018366.4,0.0500,-21.79,-6.62
863,2041737.9,0.0500,-22.04,-5.96
864,2065380.2,0.0500,-21.75,-7.86
865,2089296.1,0.0500,-21.71,-9.47
866,2113489.0,0.0500,-21.79,-10.64
867,2137962.1,0.0500,-21.76,-13.86
868,2162718.5,0.0500,-21.81,-12.96
869,2187761.6,0.0500,-21.64,-16.02
870,2213094.7,0.0500,-22.21,-15.96
871,2238721.1,0.0500,-21.67,-18.68
872,2264644.3,0.0500,-22.19,-19.67
873,2290867.7,0.0500,-22.54,-17.82
874,2317394.6,0.0500,-22.10,-22.29
875,2344228.8,0.0500,-22.20,-22.33
876,2371373.7,0.0500,-22.82,-21.51
877,2398832.9,0.0500,-22.19,-25.12
878,2426610.1,0.0500,-22.24,-26.71
879,2454708.9,0.0500,-22.50,-29.04
880,2483133.1,0.0500,-22.61,-27.80
881,2511886.4,0.0500,-22.61,-29.30
882,2540972.7,0.0500,-22.83,-29.37
883,2570395.8,0.0500,-22.75,-31.46
884,2600159.6,0.0500,-22.84,-32.53
885,2630268.0,0.0500,-22.86,-34.24
886,2660725.1,0.0500,-22.91,-37.30
887,2691534.8,0.0500,-23.34,-35.72
888,2722701.3,0.0500,-23.29,-35.62
889,2754228.7,0.0500,-23.51,-35.44
890,2786121.2,0.0500,-23.36,-38.40
891,2818382.9,0.0500,-23.46,-40.51
892,2851018.3,0.0500,-23.64,-38.54
893,2884031.5,0.0500,-23.91,-39.20
894,2917427.0,0.0500,-23.98,-40.85
895,2951209.2,0.0500,-24.07,-43.27
896,2985382.6,0.0500,-23.84,-44.92
897,3019951.7,0.0500,-24.27,-43.74
898,3054921.1,0.0500,-24.13,-40.00
899,3090295.4,0.0500,-24.48,-45.86
900,3126079.4,0.0500,-24.65,-46.92
901,3162277.7,0.0500,-24.75,-46.85
902,3198895.1,0.0500,-25.48,-47.89
903,3235936.6,0.0500,-25.26,-51.09
904,3273406.9,0.0500,-24.96,-48.20
905,3311311.2,0.0500,-25.23,-48.86
906,3349654.4,0.0500,-25.52,-49.48
907,3388441.6,0.0500,-25.43,-50.59
908,3427677.9,0.0500,-25.61,-50.84
909,3467368.5,0.0500,-25.66,-53.23
910,3507518.7,0.0500,-25.94,-51.71
911,3548133.9,0.0500,-25.79,-53.40
912,3589219.3,0.0500,-26.08,-54.79
913,3630780.5,0.0500,-26.39,-52.78
914,3672823.0,0.0500,-25.36,-54.90
915,3715352.3,0.0500,-26.51,-54.54
916,3758374.0,0.0500,-26.50,-55.31
917,3801894.0,0.0500,-26.75,-55.29
918,3845917.8,0.0500,-26.84,-55.59
919,3890451.4,0.0500,-26.81,-57.77
920,3935500.8,0.0500,-27.04,-57.75
921,3981071.7,0.0500,-28.03,-55.86
922,4027170.3,0.0500,-27.21,-59.00
923,4073802.8,0.0500,-27.29,-58.44
924,4120975.2,0.0500,-27.52,-59.39
925,4168693.8,0.0500,-27.72,-61.06
926,4216965.0,0.0500,-27.72,-60.58
927,4265795.2,0.0500,-27.95,-60.54
928,4315190.8,0.0500,-27.83,-58.10
929,4365158.3,0.0500,-28.42,-61.06
930,4415704.5,0.0500,-28.22,-61.19
931,4466835.9,0.0500,-28.64,-62.12
932,4518559.4,0.0500,-28.68,-64.64
933,4570881.9,0.0500,-28.55,-63.63
934,4623810.2,0.0500,-28.64,-62.74
935,4677351.4,0.0500,-28.83,-61.91
936,4731512.6,0.0500,-29.14,-61.85
937,4786300.9,0.0500,-29.21,-63.82
938,4841723.7,0.0500,-29.11,-63.27
939,4897788.2,0.0500,-28.97,-64.36
940,4954501.9,0.0500,-31.41,-45.96
941,5011872.3,0.0500,-28.50,-63.96
942,5069907.1,0.0500,-29.51,-63.12
943,5128613.8,0.0500,-28.03,-58.55
944,5188000.4,0.0500,-30.05,-66.32
945,5248074.6,0.0500,-27.52,-73.58
946,5308844.4,0.0500,-29.85,-65.51
947,5370318.0,0.0500,-29.92,-68.52
948,5432503.3,0.0500,-30.45,-70.54
949,5495408.7,0.0500,-30.27,-68.81
950,5559042.6,0.0500,-30.40,-72.46
951,5623413.3,0.0500,-30.71,-67.94
952,5688529.3,0.0500,-30.56,-70.03
953,5754399.4,0.0500,-31.00,-69.04
954,5821032.2,0.0500,-30.71,-69.08
955,5888436.6,0.0500,-31.03,-67.32
956,5956621.4,0.0500,-31.30,-70.40
957,6025595.9,0.0500,-31.48,-69.45
958,6095369.0,0.0500,-31.41,-68.98
959,6165950.0,0.0500,-32.30,-71.91
960,6237348.4,0.0500,-31.99,-68.62
961,6309573.4,0.0500,-32.03,-72.86
962,6382634.9,0.0500,-32.07,-70.44
963,6456542.3,0.0500,-31.92,-72.12
964,6531305.5,0.0500,-32.26,-71.86
965,6606934.5,0.0500,-32.89,-56.30
966,6683439.2,0.0500,-32.13,-74.68
967,6760829.8,0.0500,-32.74,-72.25
968,6839116.5,0.0500,-32.04,-70.19
969,6918309.7,0.0500,-32.87,-64.26
970,6998420.0,0.0500,-33.04,-74.54
971,7079457.8,0.0500,-33.34,-75.79
972,7161434.1,0.0500,-36.06,-74.78
973,7244359.6,0.0500,-33.52,-77.39
974,7328245.3,0.0500,-33.55,-79.50
975,7413102.4,0.0500,-32.95,-77.94
976,7498942.1,0.0500,-33.93,-78.77
977,7585775.8,0.0500,-32.88,-77.25
978,7673614.9,0.0500,-34.24,-77.30
979,7762471.2,0.0500,-34.51,-78.57
980,7852356.3,0.0500,-34.27,-79.72
981,7943282.3,0.0500,-34.63,-81.39
982,8035261.2,0.0500,-34.69,-78.88
983,8128305.2,0.0500,-35.15,-79.41
984,8222426.5,0.0500,-35.70,-83.22
985,8317637.7,0.0500,-35.70,-88.93
986,8413951.4,0.0500,-36.16,-84.43
987,8511380.4,0.0500,-36.27,-80.95
988,8609937.5,0.0500,-36.64,-84.60
989,8709635.9,0.0500,-36.78,-81.72
990,8810488.7,0.0500,-36.76,-92.19
991,8912509.4,0.0500,-37.95,-84.45
992,9015711.4,0.0500,-40.74,-76.09
993,9120108.4,0.0500,-37.39,-86.17
994,9225714.3,0.0500,-39.00,-85.50
995,9332543.0,0.0500,-38.75,-80.75
996,9440608.8,0.0500,-37.73,-82.50
997,9549925.9,0.0500,-39.26,-88.37
998,9660508.8,0.0500,-38.63,-95.15
999,9772372.2,0.0500,-38.39,-85.43
1000,9885530.9,0.0500,-40.31,-85.42
1001,10000000.0,0.0500,-40.89,-75.76
