#, Frequency (Hz), Amplitude (Vpp), Gain (dB), Phase (°)
1,100.0,0.0500,-61.82,0.17
2,101.2,0.0500,-64.53,4.07
3,102.3,0.0500,-63.07,-3.56
4,103.5,0.0500,-63.55,0.06
5,104.7,0.0500,-64.77,-1.33
6,105.9,0.0500,-63.40,1.26
7,107.2,0.0500,-62.94,2.25
8,108.4,0.0500,-63.32,2.26
9,109.6,0.0500,-63.76,0.68
10,110.9,0.0500,-63.95,11.07
11,112.2,0.0500,-63.15,2.68
12,113.5,0.0500,-62.55,9.77
13,114.8,0.0500,-63.01,3.04
14,116.1,0.0500,-62.60,5.06
15,117.5,0.0500,-63.64,0.95
16,118.9,0.0500,-62.80,0.76
17,120.2,0.0500,-62.68,-1.00
18,121.6,0.0500,-63.63,3.60
19,123.0,0.0500,-63.14,0.11
20,124.5,0.0500,-64.94,1.91
21,125.9,0.0500,-62.70,3.93
22,127.4,0.0500,-62.40,4.20
23,128.8,0.0500,-63.17,1.68
24,130.3,0.0500,-63.70,-1.29
25,131.8,0.0500,-63.29,1.21
26,133.4,0.0500,-63.32,2.00
27,134.9,0.0500,-62.02,0.68
28,136.5,0.0500,-63.45,-1.83
29,138.0,0.0500,-63.62,-0.32
30,139.6,0.0500,-63.05,1.88
31,141.3,0.0500,-62.60,6.42
32,142.9,0.0500,-62.32,-0.71
33,144.5,0.0500,-62.89,1.02
34,146.2,0.0500,-63.22,6.85
35,147.9,0.0500,-63.32,5.41
36,149.6,0.0500,-62.83,3.55
37,151.4,0.0500,-63.44,6.87
38,153.1,0.0500,-63.61,3.68
39,154.9,0.0500,-63.10,4.26
40,156.7,0.0500,-62.95,4.71
41,158.5,0.0500,-63.36,0.97
42,160.3,0.0500,-63.09,5.12
43,162.2,0.0500,-62.47,2.30
44,164.1,0.0500,-63.19,3.61
45,166.0,0.0500,-63.89,7.05
46,167.9,0.0500,-62.37,4.38
47,169.8,0.0500,-62.29,3.61
48,171.8,0.0500,-62.52,7.77
49,173.8,0.0500,-63.63,7.35
50,175.8,0.0500,-63.52,7.42
51,177.8,0.0500,-63.11,8.46
52,179.9,0.0500,-63.70,9.40
53,182.0,0.0500,-62.42,9.63
54,184.1,0.0500,-63.64,8.56
55,186.2,0.0500,-62.95,1.37
56,188.4,0.0500,-63.39,6.81
57,190.5,0.0500,-62.46,8.73
58,192.8,0.0500,-63.59,6.07
59,195.0,0.0500,-62.29,2.86
60,197.2,0.0500,-62.66,4.96
61,199.5,0.0500,-62.66,8.58
62,201.8,0.0500,-63.00,10.59
63,204.2,0.0500,-63.96,2.90
64,206.5,0.0500,-62.46,10.74
65,208.9,0.0500,-62.73,4.74
66,211.3,0.0500,-63.45,9.19
67,213.8,0.0500,-63.12,4.76
68,216.3,0.0500,-62.69,6.27
69,218.8,0.0500,-63.14,7.82
70,221.3,0.0500,-62.64,-4.07
71,223.9,0.0500,-63.73,6.91
72,226.5,0.0500,-62.31,6.79
73,229.1,0.0500,-62.23,1.22
74,231.7,0.0500,-62.03,3.78
75,234.4,0.0500,-63.15,11.19
76,237.1,0.0500,-63.57,5.50
77,239.9,0.0500,-62.90,4.06
78,242.7,0.0500,-62.72,2.38
79,245.5,0.0500,-63.00,5.05
80,248.3,0.0500,-63.55,2.55
81,251.2,0.0500,-63.41,7.10
82,254.1,0.0500,-63.02,12.02
83,257.0,0.0500,-62.77,9.45
84,260.0,0.0500,-63.62,11.54
85,263.0,0.0500,-62.37,6.00
86,266.1,0.0500,-63.89,5.51
87,269.2,0.0500,-62.16,7.22
88,272.3,0.0500,-63.63,4.12
89,275.4,0.0500,-63.39,10.32
90,278.6,0.0500,-63.17,3.68
91,281.8,0.0500,-62.95,9.86
92,285.1,0.0500,-63.03,4.53
93,288.4,0.0500,-63.25,7.25
94,291.7,0.0500,-63.12,1.97
95,295.1,0.0500,-62.35,11.70
96,298.5,0.0500,-62.82,14.73
97,302.0,0.0500,-62.92,12.40
98,305.5,0.0500,-62.37,6.18
99,309.0,0.0500,-62.50,5.81
100,312.6,0.0500,-63.03,9.84
101,316.2,0.0500,-63.08,10.36
102,319.9,0.0500,-62.80,5.11
103,323.6,0.0500,-62.57,13.19
104,327.3,0.0500,-62.70,7.12
105,331.1,0.0500,-63.56,9.92
106,335.0,0.0500,-63.35,12.54
107,338.8,0.0500,-62.33,11.64
108,342.8,0.0500,-63.15,10.00
109,346.7,0.0500,-63.19,11.54
110,350.8,0.0500,-62.48,9.51
111,354.8,0.0500,-62.67,10.67
112,358.9,0.0500,-63.50,8.37
113,363.1,0.0500,-62.32,16.92
114,367.3,0.0500,-62.97,8.30
115,371.5,0.0500,-63.42,11.53
116,375.8,0.0500,-62.98,9.02
117,380.2,0.0500,-62.86,13.04
118,384.6,0.0500,-63.13,12.81
119,389.0,0.0500,-63.26,13.23
120,393.6,0.0500,-62.66,13.62
121,398.1,0.0500,-62.64,17.20
122,402.7,0.0500,-63.49,9.38
123,407.4,0.0500,-62.71,11.53
124,412.1,0.0500,-62.47,10.67
125,416.9,0.0500,-63.85,9.51
126,421.7,0.0500,-62.45,16.69
127,426.6,0.0500,-63.08,15.20
128,431.5,0.0500,-62.71,13.90
129,436.5,0.0500,-63.14,14.00
130,441.6,0.0500,-62.93,12.32
131,446.7,0.0500,-63.13,15.23
132,451.9,0.0500,-62.73,8.98
133,457.1,0.0500,-62.21,14.98
134,462.4,0.0500,-62.39,12.94
135,467.7,0.0500,-63.05,12.15
136,473.2,0.0500,-62.36,14.50
137,478.6,0.0500,-62.50,12.89
138,484.2,0.0500,-62.76,17.71
139,489.8,0.0500,-61.93,13.89
140,495.5,0.0500,-63.10,19.36
141,501.2,0.0500,-62.79,13.29
142,507.0,0.0500,-62.94,16.36
143,512.9,0.0500,-62.54,14.16
144,518.8,0.0500,-62.43,13.45
145,524.8,0.0500,-63.08,15.40
146,530.9,0.0500,-63.10,16.10
147,537.0,0.0500,-62.99,16.90
148,543.3,0.0500,-62.42,15.19
149,549.5,0.0500,-62.84,20.65
150,555.9,0.0500,-62.95,20.72
151,562.3,0.0500,-62.47,14.35
152,568.9,0.0500,-62.26,17.31
153,575.4,0.0500,-62.05,13.68
154,582.1,0.0500,-62.29,16.12
155,588.8,0.0500,-63.33,20.62
156,595.7,0.0500,-62.87,17.06
157,602.6,0.0500,-62.52,19.00
158,609.5,0.0500,-62.08,15.32
159,616.6,0.0500,-62.68,15.38
160,623.7,0.0500,-62.53,19.98
161,631.0,0.0500,-62.03,19.01
162,638.3,0.0500,-61.95,18.42
163,645.7,0.0500,-62.42,17.50
164,653.1,0.0500,-61.97,18.16
165,660.7,0.0500,-62.01,20.46
166,668.3,0.0500,-62.46,20.32
167,676.1,0.0500,-62.62,18.31
168,683.9,0.0500,-62.23,17.81
169,691.8,0.0500,-62.47,17.78
170,699.8,0.0500,-62.30,15.22
171,707.9,0.0500,-62.93,19.92
172,716.1,0.0500,-62.41,24.87
173,724.4,0.0500,-62.80,16.56
174,732.8,0.0500,-61.69,16.45
175,741.3,0.0500,-62.02,23.93
176,749.9,0.0500,-62.68,18.04
177,758.6,0.0500,-61.46,22.78
178,767.4,0.0500,-63.12,20.51
179,776.2,0.0500,-62.47,22.10
180,785.2,0.0500,-62.92,24.01
181,794.3,0.0500,-62.23,16.47
182,803.5,0.0500,-62.11,19.91
183,812.8,0.0500,-62.10,22.41
184,822.2,0.0500,-62.31,24.75
185,831.8,0.0500,-61.95,22.15
186,841.4,0.0500,-61.20,23.46
187,851.1,0.0500,-62.01,21.40
188,861.0,0.0500,-61.94,24.92
189,871.0,0.0500,-62.48,22.33
190,881.0,0.0500,-62.66,23.79
191,891.3,0.0500,-62.04,25.40
192,901.6,0.0500,-62.29,20.07
193,912.0,0.0500,-61.73,27.86
194,922.6,0.0500,-62.34,22.18
195,933.3,0.0500,-62.15,24.45
196,944.1,0.0500,-61.86,21.27
197,955.0,0.0500,-61.57,28.19
198,966.1,0.0500,-61.37,27.54
199,977.2,0.0500,-62.33,27.00
200,988.6,0.0500,-61.52,24.74
201,1000.0,0.0500,-61.74,25.14
202,1011.6,0.0500,-61.11,26.83
203,1023.3,0.0500,-62.06,23.60
204,1035.1,0.0500,-61.78,30.75
205,1047.1,0.0500,-61.49,25.97
206,1059.3,0.0500,-60.96,25.33
207,1071.5,0.0500,-61.79,31.08
208,1083.9,0.0500,-61.32,27.29
209,1096.5,0.0500,-61.24,31.70
210,1109.2,0.0500,-61.20,29.22
211,1122.0,0.0500,-62.40,27.99
212,1135.0,0.0500,-61.25,32.36
213,1148.2,0.0500,-61.15,23.65
214,1161.4,0.0500,-61.59,25.97
215,1174.9,0.0500,-61.67,31.29
216,1188.5,0.0500,-61.54,32.77
217,1202.3,0.0500,-61.83,31.45
218,1216.2,0.0500,-62.02,31.67
219,1230.3,0.0500,-61.41,31.28
220,1244.5,0.0500,-60.76,34.34
221,1258.9,0.0500,-61.49,28.24
222,1273.5,0.0500,-61.15,33.68
223,1288.2,0.0500,-61.51,33.52
224,1303.2,0.0500,-61.30,33.08
225,1318.3,0.0500,-60.93,31.71
226,1333.5,0.0500,-61.03,34.90
227,1349.0,0.0500,-61.29,37.30
228,1364.6,0.0500,-61.06,32.93
229,1380.4,0.0500,-61.39,36.23
230,1396.4,0.0500,-61.13,34.11
231,1412.5,0.0500,-61.27,35.44
232,1428.9,0.0500,-60.65,35.06
233,1445.4,0.0500,-61.30,33.65
234,1462.2,0.0500,-60.88,37.10
235,1479.1,0.0500,-61.54,39.11
236,1496.2,0.0500,-60.80,40.05
237,1513.6,0.0500,-60.88,36.47
238,1531.1,0.0500,-60.72,39.48
239,1548.8,0.0500,-61.29,40.46
240,1566.8,0.0500,-60.69,36.57
241,1584.9,0.0500,-61.24,38.34
242,1603.2,0.0500,-60.19,41.57
243,1621.8,0.0500,-60.41,41.05
244,1640.6,0.0500,-60.19,34.94
245,1659.6,0.0500,-60.46,39.21
246,1678.8,0.0500,-60.92,39.34
247,1698.2,0.0500,-60.10,39.48
248,1717.9,0.0500,-60.27,41.95
249,1737.8,0.0500,-60.21,41.97
250,1757.9,0.0500,-59.94,41.66
251,1778.3,0.0500,-60.79,42.21
252,1798.9,0.0500,-60.89,38.41
253,1819.7,0.0500,-59.99,42.01
254,1840.8,0.0500,-59.68,43.42
255,1862.1,0.0500,-59.99,41.78
256,1883.6,0.0500,-59.89,41.01
257,1905.5,0.0500,-59.92,49.10
258,1927.5,0.0500,-59.77,46.96
259,1949.8,0.0500,-59.92,43.27
260,1972.4,0.0500,-60.19,43.32
261,1995.3,0.0500,-59.29,44.10
262,2018.4,0.0500,-60.15,45.14
263,2041.7,0.0500,-59.72,42.88
264,2065.4,0.0500,-59.40,43.29
265,2089.3,0.0500,-59.65,52.22
266,2113.5,0.0500,-59.53,51.04
267,2138.0,0.0500,-59.49,51.82
268,2162.7,0.0500,-59.66,48.50
269,2187.8,0.0500,-59.39,49.62
270,2213.1,0.0500,-59.38,47.60
271,2238.7,0.0500,-59.52,46.39
272,2264.6,0.0500,-59.72,43.28
273,2290.9,0.0500,-59.35,46.89
274,2317.4,0.0500,-59.27,47.69
275,2344.2,0.0500,-58.89,48.44
276,2371.4,0.0500,-59.19,47.32
277,2398.8,0.0500,-58.71,53.35
278,2426.6,0.0500,-59.02,52.53
279,2454.7,0.0500,-58.48,54.28
280,2483.1,0.0500,-58.82,51.30
281,2511.9,0.0500,-58.47,49.06
282,2541.0,0.0500,-58.54,51.65
283,2570.4,0.0500,-58.47,50.27
284,2600.2,0.0500,-58.84,54.19
285,2630.3,0.0500,-58.31,51.68
286,2660.7,0.0500,-58.47,53.62
287,2691.5,0.0500,-58.64,53.45
288,2722.7,0.0500,-58.25,53.62
289,2754.2,0.0500,-57.61,55.38
290,2786.1,0.0500,-57.69,54.12
291,2818.4,0.0500,-58.28,52.82
292,2851.0,0.0500,-58.23,56.15
293,2884.0,0.0500,-57.91,52.00
294,2917.4,0.0500,-57.81,57.40
295,2951.2,0.0500,-57.70,58.14
296,2985.4,0.0500,-57.55,52.17
297,3020.0,0.0500,-57.55,53.61
298,3054.9,0.0500,-57.80,57.81
299,3090.3,0.0500,-57.61,55.48
300,3126.1,0.0500,-56.89,56.15
301,3162.3,0.0500,-57.47,57.94
302,3198.9,0.0500,-57.31,59.13
303,3235.9,0.0500,-57.02,58.97
304,3273.4,0.0500,-57.19,58.52
305,3311.3,0.0500,-57.25,56.91
306,3349.7,0.0500,-56.77,57.94
307,3388.4,0.0500,-56.71,58.03
308,3427.7,0.0500,-56.63,59.10
309,3467.4,0.0500,-56.42,60.68
310,3507.5,0.0500,-56.36,61.43
311,3548.1,0.0500,-56.66,60.07
312,3589.2,0.0500,-56.35,61.50
313,3630.8,0.0500,-56.36,61.68
314,3672.8,0.0500,-56.18,62.68
315,3715.4,0.0500,-56.22,62.82
316,3758.4,0.0500,-56.22,61.88
317,3801.9,0.0500,-56.08,63.59
318,3845.9,0.0500,-56.31,63.10
319,3890.5,0.0500,-55.47,63.23
320,3935.5,0.0500,-55.72,63.90
321,3981.1,0.0500,-55.75,65.63
322,4027.2,0.0500,-55.67,61.64
323,4073.8,0.0500,-55.80,65.12
324,4121.0,0.0500,-55.43,63.72
325,4168.7,0.0500,-55.53,65.22
326,4217.0,0.0500,-55.32,64.50
327,4265.8,0.0500,-55.22,65.70
328,4315.2,0.0500,-55.27,65.96
329,4365.2,0.0500,-55.05,65.28
330,4415.7,0.0500,-55.08,65.96
331,4466.8,0.0500,-54.72,66.57
332,4518.6,0.0500,-54.66,64.80
333,4570.9,0.0500,-54.99,66.92
334,4623.8,0.0500,-55.00,66.57
335,4677.4,0.0500,-54.57,67.11
336,4731.5,0.0500,-54.30,68.57
337,4786.3,0.0500,-54.47,68.15
338,4841.7,0.0500,-54.32,66.71
339,4897.8,0.0500,-54.28,68.12
340,4954.5,0.0500,-54.07,67.88
341,5011.9,0.0500,-53.82,68.53
342,5069.9,0.0500,-53.95,68.69
343,5128.6,0.0500,-54.02,67.29
344,5188.0,0.0500,-53.48,69.38
345,5248.1,0.0500,-53.70,69.03
346,5308.8,0.0500,-53.44,68.49
347,5370.3,0.0500,-53.51,68.95
348,5432.5,0.0500,-53.48,68.66
349,5495.4,0.0500,-53.19,69.44
350,5559.0,0.0500,-53.17,70.17
351,5623.4,0.0500,-53.14,69.78
352,5688.5,0.0500,-52.98,71.03
353,5754.4,0.0500,-53.18,69.64
354,5821.0,0.0500,-52.98,69.51
355,5888.4,0.0500,-53.01,70.61
356,5956.6,0.0500,-52.87,71.02
357,6025.6,0.0500,-52.64,71.24
358,6095.4,0.0500,-52.45,71.15
359,6166.0,0.0500,-52.60,70.69
360,6237.3,0.0500,-52.42,71.83
361,6309.6,0.0500,-52.40,72.99
362,6382.6,0.0500,-52.38,72.34
363,6456.5,0.0500,-52.19,72.79
364,6531.3,0.0500,-51.98,74.37
365,6606.9,0.0500,-51.95,72.46
366,6683.4,0.0500,-52.12,74.12
367,6760.8,0.0500,-51.82,73.94
368,6839.1,0.0500,-51.66,74.03
369,6918.3,0.0500,-51.65,76.18
370,6998.4,0.0500,-51.59,74.58
371,7079.5,0.0500,-51.32,73.99
372,7161.4,0.0500,-50.97,73.14
373,7244.4,0.0500,-51.34,74.37
374,7328.2,0.0500,-51.05,75.14
375,7413.1,0.0500,-50.85,75.41
376,7498.9,0.0500,-50.95,75.17
377,7585.8,0.0500,-50.98,74.16
378,7673.6,0.0500,-50.62,74.64
379,7762.5,0.0500,-50.78,75.58
380,7852.4,0.0500,-50.63,75.43
381,7943.3,0.0500,-50.35,75.87
382,8035.3,0.0500,-50.32,75.18
383,8128.3,0.0500,-50.27,77.14
384,8222.4,0.0500,-50.23,75.18
385,8317.6,0.0500,-50.21,76.82
386,8414.0,0.0500,-49.91,76.25
387,8511.4,0.0500,-49.87,76.68
388,8609.9,0.0500,-49.75,76.79
389,8709.6,0.0500,-49.73,76.72
390,8810.5,0.0500,-49.66,78.04
391,8912.5,0.0500,-49.56,78.11
392,9015.7,0.0500,-49.47,77.02
393,9120.1,0.0500,-49.42,77.23
394,9225.7,0.0500,-49.37,77.25
395,9332.5,0.0500,-48.98,76.86
396,9440.6,0.0500,-48.98,78.62
397,9549.9,0.0500,-48.90,77.95
398,9660.5,0.0500,-48.90,78.20
399,9772.4,0.0500,-48.74,78.25
400,9885.5,0.0500,-48.77,77.98
401,10000.0,0.0500,-48.63,78.44
402,10115.8,0.0500,-48.59,78.33
403,10232.9,0.0500,-48.43,78.62
404,10351.4,0.0500,-48.16,78.87
405,10471.3,0.0500,-48.07,78.22
406,10592.5,0.0500,-47.96,78.92
407,10715.2,0.0500,-47.86,79.20
408,10839.3,0.0500,-47.85,78.85
409,10964.8,0.0500,-47.78,79.51
410,11091.7,0.0500,-47.66,78.71
411,11220.2,0.0500,-47.69,79.81
412,11350.1,0.0500,-47.52,79.89
413,11481.5,0.0500,-47.47,79.93
414,11614.5,0.0500,-47.39,79.58
415,11749.0,0.0500,-47.12,79.94
416,11885.0,0.0500,-46.98,79.38
417,12022.6,0.0500,-47.08,80.34
418,12161.9,0.0500,-46.90,80.14
419,12302.7,0.0500,-46.80,81.00
420,12445.1,0.0500,-46.65,79.74
421,12589.3,0.0500,-46.73,80.23
422,12735.0,0.0500,-46.51,80.73
423,12882.5,0.0500,-46.49,80.35
424,13031.7,0.0500,-46.34,79.86
425,13182.6,0.0500,-46.32,81.43
426,13335.2,0.0500,-46.09,80.71
427,13489.6,0.0500,-45.95,81.08
428,13645.8,0.0500,-45.94,81.15
429,13803.8,0.0500,-45.91,81.28
430,13963.7,0.0500,-45.78,81.04
431,14125.4,0.0500,-45.71,81.61
432,14288.9,0.0500,-45.60,81.34
433,14454.4,0.0500,-45.51,81.68
434,14621.8,0.0500,-45.46,81.46
435,14791.1,0.0500,-45.17,81.91
436,14962.4,0.0500,-45.15,82.68
437,15135.6,0.0500,-44.98,81.83
438,15310.9,0.0500,-44.86,82.05
439,15488.2,0.0500,-44.79,82.07
440,15667.5,0.0500,-44.69,82.70
441,15848.9,0.0500,-44.78,82.52
442,16032.5,0.0500,-44.59,82.42
443,16218.1,0.0500,-44.48,82.71
444,16405.9,0.0500,-44.37,82.08
445,16595.9,0.0500,-44.33,82.75
446,16788.0,0.0500,-44.07,82.36
447,16982.4,0.0500,-44.12,82.41
448,17179.1,0.0500,-43.90,82.76
449,17378.0,0.0500,-43.80,82.33
450,17579.2,0.0500,-43.72,82.96
451,17782.8,0.0500,-43.66,82.53
452,17988.7,0.0500,-43.50,82.83
453,18197.0,0.0500,-43.47,83.45
454,18407.7,0.0500,-43.38,83.67
455,18620.9,0.0500,-43.29,83.35
456,18836.5,0.0500,-43.15,83.98
457,19054.6,0.0500,-43.08,83.57
458,19275.2,0.0500,-42.96,83.28
459,19498.4,0.0500,-42.94,83.29
460,19724.2,0.0500,-42.72,83.84
461,19952.6,0.0500,-42.68,83.93
462,20183.7,0.0500,-42.57,83.83
463,20417.4,0.0500,-42.52,84.09
464,20653.8,0.0500,-42.27,83.69
465,20893.0,0.0500,-42.27,84.02
466,21134.9,0.0500,-42.14,83.74
467,21379.6,0.0500,-42.05,83.99
468,21627.2,0.0500,-42.00,83.73
469,21877.6,0.0500,-41.88,84.13
470,22130.9,0.0500,-41.72,84.06
471,22387.2,0.0500,-41.59,83.55
472,22646.4,0.0500,-41.52,84.55
473,22908.7,0.0500,-41.45,83.91
474,23173.9,0.0500,-41.38,84.41
475,23442.3,0.0500,-41.27,84.31
476,23713.7,0.0500,-41.21,84.42
477,23988.3,0.0500,-41.05,84.60
478,24266.1,0.0500,-40.96,84.41
479,24547.1,0.0500,-40.92,84.70
480,24831.3,0.0500,-40.79,84.65
481,25118.9,0.0500,-40.66,84.26
482,25409.7,0.0500,-40.54,84.41
483,25704.0,0.0500,-40.38,84.45
484,26001.6,0.0500,-40.36,84.97
485,26302.7,0.0500,-40.31,84.57
486,26607.3,0.0500,-40.15,84.76
487,26915.3,0.0500,-40.02,84.73
488,27227.0,0.0500,-39.95,84.89
489,27542.3,0.0500,-39.83,84.93
490,27861.2,0.0500,-39.72,84.95
491,28183.8,0.0500,-39.67,85.00
492,28510.2,0.0500,-39.55,84.60
493,28840.3,0.0500,-39.44,85.10
494,29174.3,0.0500,-39.31,85.00
495,29512.1,0.0500,-39.16,85.17
496,29853.8,0.0500,-39.18,85.14
497,30199.5,0.0500,-38.95,85.04
498,30549.2,0.0500,-38.88,85.12
499,30903.0,0.0500,-38.87,85.32
500,31260.8,0.0500,-38.72,85.33
501,31622.8,0.0500,-38.62,85.56
502,31989.0,0.0500,-38.51,85.44
503,32359.4,0.0500,-38.44,85.27
504,32734.1,0.0500,-38.31,85.54
505,33113.1,0.0500,-38.24,85.16
506,33496.5,0.0500,-38.10,85.38
507,33884.4,0.0500,-38.05,85.50
508,34276.8,0.0500,-37.98,85.63
509,34673.7,0.0500,-37.83,85.59
510,35075.2,0.0500,-37.74,85.52
511,35481.3,0.0500,-37.59,85.69
512,35892.2,0.0500,-37.56,85.75
513,36307.8,0.0500,-37.47,85.73
514,36728.2,0.0500,-37.30,85.54
515,37153.5,0.0500,-37.21,85.61
516,37583.7,0.0500,-37.12,85.74
517,38018.9,0.0500,-37.05,85.68
518,38459.2,0.0500,-36.92,85.41
519,38904.5,0.0500,-36.82,85.86
520,39355.0,0.0500,-36.65,85.82
521,39810.7,0.0500,-36.65,86.07
522,40271.7,0.0500,-36.51,85.59
523,40738.0,0.0500,-36.41,85.50
524,41209.8,0.0500,-36.30,85.72
525,41686.9,0.0500,-36.20,85.83
526,42169.7,0.0500,-36.10,85.71
527,42658.0,0.0500,-36.00,86.05
528,43151.9,0.0500,-35.92,85.87
529,43651.6,0.0500,-35.74,85.79
530,44157.0,0.0500,-35.72,86.00
531,44668.4,0.0500,-35.56,86.06
532,45185.6,0.0500,-35.45,85.74
533,45708.8,0.0500,-35.36,86.05
534,46238.1,0.0500,-35.34,85.60
535,46773.5,0.0500,-35.17,85.71
536,47315.1,0.0500,-35.07,85.65
537,47863.0,0.0500,-34.94,85.81
538,48417.2,0.0500,-34.81,86.14
539,48977.9,0.0500,-34.76,85.84
540,49545.0,0.0500,-34.62,85.92
541,50118.7,0.0500,-34.52,85.88
542,50699.1,0.0500,-34.41,85.62
543,51286.1,0.0500,-34.32,85.76
544,51880.0,0.0500,-34.20,85.63
545,52480.7,0.0500,-34.15,85.59
546,53088.4,0.0500,-34.04,85.83
547,53703.2,0.0500,-33.92,85.52
548,54325.0,0.0500,-33.78,85.31
549,54954.1,0.0500,-33.72,85.70
550,55590.4,0.0500,-33.62,85.46
551,56234.1,0.0500,-33.51,85.31
552,56885.3,0.0500,-33.37,85.63
553,57544.0,0.0500,-33.27,85.74
554,58210.3,0.0500,-33.19,85.61
555,58884.4,0.0500,-33.10,85.88
556,59566.2,0.0500,-33.00,85.79
557,60256.0,0.0500,-32.88,85.74
558,60953.7,0.0500,-32.79,85.67
559,61659.5,0.0500,-32.66,85.74
560,62373.5,0.0500,-32.66,85.86
561,63095.7,0.0500,-32.56,85.57
562,63826.3,0.0500,-32.43,85.40
563,64565.4,0.0500,-32.29,85.53
564,65313.1,0.0500,-32.16,85.73
565,66069.3,0.0500,-32.05,85.33
566,66834.4,0.0500,-31.98,85.48
567,67608.3,0.0500,-31.87,85.24
568,68391.2,0.0500,-31.74,85.55
569,69183.1,0.0500,-31.64,85.65
570,69984.2,0.0500,-31.59,85.55
571,70794.6,0.0500,-31.40,85.43
572,71614.3,0.0500,-31.42,85.60
573,72443.6,0.0500,-31.30,85.55
574,73282.5,0.0500,-31.18,85.19
575,74131.0,0.0500,-31.09,85.54
576,74989.4,0.0500,-30.96,85.43
577,75857.8,0.0500,-30.88,85.50
578,76736.1,0.0500,-30.77,85.20
579,77624.7,0.0500,-30.66,85.33
580,78523.6,0.0500,-30.51,85.35
581,79432.8,0.0500,-30.42,85.56
582,80352.6,0.0500,-30.35,85.26
583,81283.1,0.0500,-30.23,85.08
584,82224.3,0.0500,-30.12,85.54
585,83176.4,0.0500,-30.01,85.32
586,84139.5,0.0500,-29.91,85.26
587,85113.8,0.0500,-29.77,85.18
588,86099.4,0.0500,-29.72,85.20
589,87096.4,0.0500,-29.60,84.99
590,88104.9,0.0500,-29.46,84.99
591,89125.1,0.0500,-29.49,85.23
592,90157.1,0.0500,-29.31,85.31
593,91201.1,0.0500,-29.18,84.98
594,92257.1,0.0500,-29.10,84.79
595,93325.4,0.0500,-28.91,84.79
596,94406.1,0.0500,-28.89,84.75
597,95499.3,0.0500,-28.73,84.73
598,96605.1,0.0500,-28.63,85.12
599,97723.7,0.0500,-28.49,84.65
600,98855.3,0.0500,-28.47,85.01
601,100000.0,0.0500,-28.29,84.50
602,101157.9,0.0500,-28.25,84.82
603,102329.3,0.0500,-28.12,84.95
604,103514.2,0.0500,-28.01,84.60
605,104712.9,0.0500,-27.91,84.29
606,105925.4,0.0500,-27.79,84.61
607,107151.9,0.0500,-27.71,84.65
608,108392.7,0.0500,-27.60,84.11
609,109647.8,0.0500,-27.47,84.47
610,110917.5,0.0500,-27.34,84.63
611,112201.8,0.0500,-27.24,84.52
612,113501.1,0.0500,-27.14,84.35
613,114815.4,0.0500,-27.08,84.49
614,116144.9,0.0500,-27.00,84.35
615,117489.8,0.0500,-26.81,84.17
616,118850.2,0.0500,-26.74,84.12
617,120226.4,0.0500,-26.61,84.23
618,121618.6,0.0500,-26.52,84.21
619,123026.9,0.0500,-26.41,83.99
620,124451.5,0.0500,-26.34,83.90
621,125892.5,0.0500,-26.16,83.73
622,127350.3,0.0500,-26.05,83.87
623,128825.0,0.0500,-26.00,84.35
624,130316.7,0.0500,-25.84,83.84
625,131825.7,0.0500,-25.80,83.38
626,133352.1,0.0500,-25.62,83.51
627,134896.3,0.0500,-25.53,83.51
628,136458.3,0.0500,-25.41,83.96
629,138038.4,0.0500,-25.30,83.44
630,139636.8,0.0500,-25.17,83.48
631,141253.8,0.0500,-25.10,83.44
632,142889.4,0.0500,-24.95,83.19
633,144544.0,0.0500,-24.90,83.43
634,146217.7,0.0500,-24.77,83.10
635,147910.8,0.0500,-24.65,83.09
636,149623.6,0.0500,-24.48,83.28
637,151356.1,0.0500,-24.41,82.93
638,153108.7,0.0500,-24.29,83.08
639,154881.7,0.0500,-24.15,82.79
640,156675.1,0.0500,-24.04,82.70
641,158489.3,0.0500,-23.93,82.70
642,160324.5,0.0500,-23.82,82.65
643,162181.0,0.0500,-23.71,82.17
644,164059.0,0.0500,-23.57,82.13
645,165958.7,0.0500,-23.49,81.98
646,167880.4,0.0500,-23.38,82.18
647,169824.4,0.0500,-23.18,82.45
648,171790.8,0.0500,-22.97,81.92
649,173780.1,0.0500,-23.03,81.82
650,175792.4,0.0500,-22.93,82.26
651,177827.9,0.0500,-22.77,82.32
652,179887.1,0.0500,-22.68,81.56
653,181970.1,0.0500,-22.47,81.56
654,184077.2,0.0500,-22.23,81.19
655,186208.7,0.0500,-22.26,81.02
656,188364.9,0.0500,-22.14,81.39
657,190546.1,0.0500,-22.23,81.44
658,192752.5,0.0500,-21.88,81.16
659,194984.5,0.0500,-21.82,80.54
660,197242.3,0.0500,-21.64,80.93
661,199526.2,0.0500,-21.55,80.52
662,201836.6,0.0500,-21.35,79.86
663,204173.8,0.0500,-21.19,81.43
664,206538.0,0.0500,-21.19,79.95
665,208929.6,0.0500,-21.11,80.30
666,211348.9,0.0500,-20.94,79.86
667,213796.2,0.0500,-20.79,79.71
668,216271.9,0.0500,-20.71,79.18
669,218776.2,0.0500,-20.52,79.37
670,221309.5,0.0500,-20.47,79.76
671,223872.1,0.0500,-20.16,79.61
672,226464.4,0.0500,-20.15,79.14
673,229086.8,0.0500,-19.96,78.66
674,231739.5,0.0500,-19.88,78.63
675,234422.9,0.0500,-19.77,78.16
676,237137.4,0.0500,-19.65,79.79
677,239883.3,0.0500,-19.43,78.49
678,242661.0,0.0500,-19.32,78.24
679,245470.9,0.0500,-19.19,78.36
680,248313.3,0.0500,-19.13,77.98
681,251188.6,0.0500,-18.94,77.56
682,254097.3,0.0500,-18.74,77.37
683,257039.6,0.0500,-18.60,75.15
684,260016.0,0.0500,-18.46,77.15
685,263026.8,0.0500,-18.32,76.55
686,266072.5,0.0500,-18.14,76.37
687,269153.5,0.0500,-17.92,76.86
688,272270.1,0.0500,-17.91,75.96
689,275422.9,0.0500,-17.71,75.94
690,278612.1,0.0500,-17.57,75.90
691,281838.3,0.0500,-17.34,75.34
692,285101.8,0.0500,-17.28,76.29
693,288403.2,0.0500,-17.20,74.51
694,291742.7,0.0500,-16.89,75.18
695,295120.9,0.0500,-16.62,74.39
696,298538.3,0.0500,-16.49,74.99
697,301995.2,0.0500,-16.55,74.83
698,305492.1,0.0500,-16.34,73.27
699,309029.5,0.0500,-16.16,73.15
700,312607.9,0.0500,-15.92,73.02
701,316227.8,0.0500,-15.80,72.39
702,319889.5,0.0500,-15.53,70.62
703,323593.7,0.0500,-15.38,71.59
704,327340.7,0.0500,-15.33,70.92
705,331131.1,0.0500,-15.05,68.51
706,334965.4,0.0500,-14.47,71.51
707,338844.2,0.0500,-14.71,70.30
708,342767.8,0.0500,-14.49,70.32
709,346736.9,0.0500,-14.20,69.27
710,350751.9,0.0500,-13.90,70.59
711,354813.4,0.0500,-13.75,68.64
712,358921.9,0.0500,-13.67,68.22
713,363078.1,0.0500,-13.45,67.59
714,367282.3,0.0500,-13.28,67.03
715,371535.2,0.0500,-13.09,66.21
716,375837.4,0.0500,-12.86,66.09
717,380189.4,0.0500,-12.20,65.26
718,384591.8,0.0500,-12.38,64.45
719,389045.1,0.0500,-12.23,64.46
720,393550.1,0.0500,-11.93,63.38
721,398107.2,0.0500,-11.74,66.26
722,402717.0,0.0500,-11.51,61.89
723,407380.3,0.0500,-10.99,63.93
724,412097.5,0.0500,-10.65,58.97
725,416869.4,0.0500,-10.69,59.30
726,421696.5,0.0500,-10.46,58.07
727,426579.5,0.0500,-10.20,57.29
728,431519.1,0.0500,-9.96,55.65
729,436515.8,0.0500,-9.76,55.97
730,441570.4,0.0500,-9.37,54.31
731,446683.6,0.0500,-9.17,52.37
732,451855.9,0.0500,-8.89,50.87
733,457088.2,0.0500,-8.44,50.94
734,462381.0,0.0500,-8.30,47.98
735,467735.1,0.0500,-8.30,48.47
736,473151.3,0.0500,-7.76,44.88
737,478630.1,0.0500,-7.41,44.02
738,484172.4,0.0500,-7.14,40.66
739,489778.8,0.0500,-6.85,38.44
740,495450.2,0.0500,-6.93,36.20
741,501187.2,0.0500,-6.32,34.21
742,506990.7,0.0500,-6.08,31.63
743,512861.4,0.0500,-5.80,29.40
744,518800.0,0.0500,-5.38,26.52
745,524807.5,0.0500,-5.37,22.85
746,530884.4,0.0500,-5.17,19.84
747,537031.8,0.0500,-4.98,16.60
748,543250.3,0.0500,-4.81,13.43
749,549540.9,0.0500,-4.60,9.63
750,555904.3,0.0500,-4.55,5.97
751,562341.3,0.0500,-4.68,3.22
752,568852.9,0.0500,-4.50,-1.81
753,575439.9,0.0500,-4.52,-6.44
754,582103.2,0.0500,-4.52,-9.15
755,588843.7,0.0500,-4.54,-12.90
756,595662.1,0.0500,-4.76,-16.11
757,602559.6,0.0500,-4.87,-19.60
758,609536.9,0.0500,-5.03,-23.08
759,616595.0,0.0500,-5.24,-26.46
760,623734.8,0.0500,-5.44,-29.47
761,630957.3,0.0500,-5.83,-30.78
762,638263.5,0.0500,-5.91,-35.13
763,645654.2,0.0500,-6.10,-38.17
764,653130.6,0.0500,-6.50,-40.29
765,660693.4,0.0500,-6.78,-42.42
766,668343.9,0.0500,-6.73,-44.64
767,676083.0,0.0500,-7.33,-46.61
768,683911.6,0.0500,-7.61,-49.29
769,691831.0,0.0500,-7.89,-49.90
770,699842.0,0.0500,-8.17,-52.41
771,707945.8,0.0500,-8.37,-52.96
772,716143.4,0.0500,-8.78,-55.59
773,724436.0,0.0500,-9.34,-58.26
774,732824.5,0.0500,-9.28,-58.96
775,741310.2,0.0500,-9.63,-59.77
776,749894.2,0.0500,-9.85,-60.59
777,758577.6,0.0500,-10.11,-62.21
778,767361.5,0.0500,-10.38,-62.84
779,776247.1,0.0500,-10.66,-64.72
780,785235.6,0.0500,-11.22,-64.27
781,794328.2,0.0500,-11.16,-66.16
782,803526.1,0.0500,-11.37,-66.61
783,812830.5,0.0500,-11.68,-67.26
784,822242.6,0.0500,-11.89,-68.14
785,831763.8,0.0500,-12.17,-69.81
786,841395.1,0.0500,-12.35,-70.02
787,851138.0,0.0500,-12.52,-69.90
788,860993.8,0.0500,-12.75,-71.48
789,870963.6,0.0500,-12.94,-70.43
790,881048.9,0.0500,-13.21,-72.88
791,891250.9,0.0500,-13.46,-73.31
792,901571.1,0.0500,-13.67,-73.90
793,912010.8,0.0500,-13.82,-74.18
794,922571.4,0.0500,-14.00,-75.07
795,933254.3,0.0500,-14.12,-75.36
796,944060.9,0.0500,-14.58,-75.76
797,954992.6,0.0500,-14.65,-76.43
798,966050.9,0.0500,-14.77,-76.85
799,977237.2,0.0500,-14.97,-77.00
800,988553.1,0.0500,-15.13,-77.20
801,1000000.0,0.0500,-15.30,-77.49
802,1011579.5,0.0500,-15.48,-78.45
803,1023293.0,0.0500,-15.72,-78.78
804,1035142.2,0.0500,-15.89,-78.56
805,1047128.5,0.0500,-16.05,-79.21
806,1059253.7,0.0500,-16.30,-79.32
807,1071519.3,0.0500,-16.37,-80.05
808,1083926.9,0.0500,-16.60,-80.21
809,1096478.2,0.0500,-16.85,-81.03
810,1109174.8,0.0500,-16.98,-80.99
811,1122018.5,0.0500,-17.16,-81.04
812,1135010.8,0.0500,-17.26,-81.06
813,1148153.6,0.0500,-17.45,-81.31
814,1161448.6,0.0500,-17.64,-82.39
815,1174897.6,0.0500,-17.76,-82.38
816,1188502.2,0.0500,-17.99,-82.59
817,1202264.4,0.0500,-17.84,-83.89
818,1216186.0,0.0500,-18.21,-82.23
819,1230268.8,0.0500,-18.47,-82.20
820,1244514.6,0.0500,-18.51,-83.55
821,1258925.4,0.0500,-18.76,-84.50
822,1273503.1,0.0500,-18.91,-85.54
823,1288249.6,0.0500,-19.01,-84.92
824,1303166.8,0.0500,-19.23,-84.27
825,1318256.7,0.0500,-19.36,-84.98
826,1333521.4,0.0500,-19.64,-84.72
827,1348962.9,0.0500,-19.55,-85.33
828,1364583.1,0.0500,-19.68,-85.77
829,1380384.3,0.0500,-19.66,-85.56
830,1396368.4,0.0500,-19.91,-87.30
831,1412537.5,0.0500,-20.03,-86.12
832,1428894.0,0.0500,-20.26,-86.24
833,1445439.8,0.0500,-20.43,-87.18
834,1462177.2,0.0500,-20.50,-87.43
835,1479108.4,0.0500,-20.66,-87.37
836,1496235.7,0.0500,-20.87,-87.57
837,1513561.2,0.0500,-20.57,-88.29
838,1531087.5,0.0500,-20.94,-87.37
839,1548816.6,0.0500,-21.14,-88.27
840,1566751.1,0.0500,-21.30,-88.35
841,1584893.2,0.0500,-21.46,-87.68
842,1603245.4,0.0500,-21.59,-89.03
843,1621810.1,0.0500,-21.77,-89.68
844,1640589.8,0.0500,-21.69,-88.07
845,1659586.9,0.0500,-21.96,-87.63
846,1678804.0,0.0500,-22.09,-90.09
847,1698243.7,0.0500,-22.19,-90.13
848,1717908.4,0.0500,-22.34,-90.79
849,1737800.8,0.0500,-22.46,-90.84
850,1757923.6,0.0500,-22.83,-89.22
851,1778279.4,0.0500,-22.78,-90.33
852,1798870.9,0.0500,-22.92,-91.13
853,1819700.9,0.0500,-22.91,-91.36
854,1840772.0,0.0500,-23.11,-91.69
855,1862087.1,0.0500,-23.23,-92.65
856,1883649.1,0.0500,-23.36,-92.05
857,1905460.7,0.0500,-23.47,-91.95
858,1927524.9,0.0500,-23.79,-92.85
859,1949844.6,0.0500,-23.58,-94.03
860,1972422.7,0.0500,-23.83,-93.78
861,1995262.3,0.0500,-24.05,-93.48
862,2018366.4,0.0500,-24.11,-93.71
863,2041737.9,0.0500,-24.17,-92.90
864,2065380.2,0.0500,-24.51,-94.30
865,2089296.1,0.0500,-24.68,-94.16
866,2113489.0,0.0500,-24.70,-94.67
867,2137962.1,0.0500,-24.63,-89.04
868,2162718.5,0.0500,-24.92,-95.61
869,2187761.6,0.0500,-25.02,-98.77
870,2213094.7,0.0500,-25.24,-96.27
871,2238721.1,0.0500,-25.78,-98.69
872,2264644.3,0.0500,-25.35,-94.85
873,2290867.7,0.0500,-25.55,-95.50
874,2317394.6,0.0500,-25.56,-97.69
875,2344228.8,0.0500,-25.83,-98.24
876,2371373.7,0.0500,-26.03,-96.82
877,2398832.9,0.0500,-26.22,-96.86
878,2426610.1,0.0500,-26.04,-96.53
879,2454708.9,0.0500,-26.31,-98.12
880,2483133.1,0.0500,-27.41,-100.79
881,2511886.4,0.0500,-26.68,-98.35
882,2540972.7,0.0500,-26.85,-99.21
883,2570395.8,0.0500,-27.07,-101.19
884,2600159.6,0.0500,-27.10,-101.88
885,2630268.0,0.0500,-27.40,-99.66
886,2660725.1,0.0500,-27.49,-100.91
887,2691534.8,0.0500,-27.74,-100.91
888,2722701.3,0.0500,-27.83,-100.06
889,2754228.7,0.0500,-28.06,-100.90
890,2786121.2,0.0500,-28.08,-101.73
891,2818382.9,0.0500,-28.34,-101.94
892,2851018.3,0.0500,-28.52,-99.59
893,2884031.5,0.0500,-28.66,-100.71
894,2917427.0,0.0500,-28.40,-104.60
895,2951209.2,0.0500,-29.04,-100.80
896,2985382.6,0.0500,-29.00,-103.01
897,3019951.7,0.0500,-29.29,-104.13
898,3054921.1,0.0500,-28.69,-108.21
899,3090295.4,0.0500,-29.65,-103.48
900,3126079.4,0.0500,-29.88,-103.47
901,3162277.7,0.0500,-30.28,-106.23
902,3198895.1,0.0500,-30.63,-104.04
903,3235936.6,0.0500,-30.78,-103.75
904,3273406.9,0.0500,-31.57,-100.63
905,3311311.2,0.0500,-31.95,-94.77
906,3349654.4,0.0500,-31.84,-91.55
907,3388441.6,0.0500,-31.99,-85.93
908,3427677.9,0.0500,-30.90,-84.40
909,3467368.5,0.0500,-30.27,-83.90
910,3507518.7,0.0500,-29.53,-88.46
911,3548133.9,0.0500,-29.67,-88.01
912,3589219.3,0.0500,-29.23,-96.50
913,3630780.5,0.0500,-29.29,-98.24
914,3672823.0,0.0500,-29.52,-97.78
915,3715352.3,0.0500,-29.55,-101.67
916,3758374.0,0.0500,-29.71,-105.30
917,3801894.0,0.0500,-29.84,-103.63
918,3845917.8,0.0500,-29.95,-104.90
919,3890451.4,0.0500,-30.24,-105.57
920,3935500.8,0.0500,-30.20,-109.81
921,3981071.7,0.0500,-30.48,-105.52
922,4027170.3,0.0500,-30.60,-111.64
923,4073802.8,0.0500,-30.80,-110.09
924,4120975.2,0.0500,-30.87,-113.33
925,4168693.8,0.0500,-30.61,-121.13
926,4216965.0,0.0500,-31.56,-101.03
927,4265795.2,0.0500,-30.68,-117.70
928,4315190.8,0.0500,-32.10,-117.82
929,4365158.3,0.0500,-31.43,-116.19
930,4415704.5,0.0500,-31.73,-120.86
931,4466835.9,0.0500,-32.00,-119.19
932,4518559.4,0.0500,-32.14,-124.70
933,4570881.9,0.0500,-32.26,-124.23
934,4623810.2,0.0500,-32.43,-127.33
935,4677351.4,0.0500,-32.41,-125.85
936,4731512.6,0.0500,-32.71,-128.78
937,4786300.9,0.0500,-32.97,-127.79
938,4841723.7,0.0500,-32.73,-132.66
939,4897788.2,0.0500,-32.90,-134.66
940,4954501.9,0.0500,-33.47,-135.55
941,5011872.3,0.0500,-33.41,-135.40
942,5069907.1,0.0500,-33.57,-139.52
943,5128613.8,0.0500,-33.95,-144.19
944,5188000.4,0.0500,-34.29,-146.31
945,5248074.6,0.0500,-34.05,-150.43
946,5308844.4,0.0500,-34.57,-148.59
947,5370318.0,0.0500,-34.73,-153.04
948,5432503.3,0.0500,-35.40,-150.49
949,5495408.7,0.0500,-35.42,-157.14
950,5559042.6,0.0500,-35.83,-150.40
951,5623413.3,0.0500,-36.72,-157.00
952,5688529.3,0.0500,-36.58,-156.25
953,5754399.4,0.0500,-36.29,-156.38
954,5821032.2,0.0500,-33.14,-135.96
955,5888436.6,0.0500,-35.68,-159.19
956,5956621.4,0.0500,-35.56,-157.75
957,6025595.9,0.0500,-35.63,-167.45
958,6095369.0,0.0500,-35.46,-169.80
959,6165950.0,0.0500,-34.88,-168.12
960,6237348.4,0.0500,-34.21,188.84
961,6309573.4,0.0500,-35.18,182.32
962,6382634.9,0.0500,-34.46,177.06
963,6456542.3,0.0500,-34.96,179.63
964,6531305.5,0.0500,-34.78,174.27
965,6606934.5,0.0500,-34.70,171.17
966,6683439.2,0.0500,-34.57,167.22
967,6760829.8,0.0500,-34.30,166.72
968,6839116.5,0.0500,-34.31,162.82
969,6918309.7,0.0500,-33.95,162.43
970,6998420.0,0.0500,-33.80,157.35
971,7079457.8,0.0500,-33.73,152.89
972,7161434.1,0.0500,-33.33,153.44
973,7244359.6,0.0500,-33.08,151.12
974,7328245.3,0.0500,-31.58,151.05
975,7413102.4,0.0500,-32.35,147.18
976,7498942.1,0.0500,-32.47,143.08
977,7585775.8,0.0500,-32.07,143.97
978,7673614.9,0.0500,-31.56,138.56
979,7762471.2,0.0500,-31.71,137.23
980,7852356.3,0.0500,-30.92,132.69
981,7943282.3,0.0500,-30.98,131.58
982,8035261.2,0.0500,-31.13,130.04
983,8128305.2,0.0500,-29.75,126.86
984,8222426.5,0.0500,-30.14,123.76
985,8317637.7,0.0500,-29.74,119.17
986,8413951.4,0.0500,-29.25,119.49
987,8511380.4,0.0500,-30.89,114.34
988,8609937.5,0.0500,-29.13,126.19
989,8709635.9,0.0500,-28.36,112.16
990,8810488.7,0.0500,-28.03,108.15
991,8912509.4,0.0500,-27.39,105.84
992,9015711.4,0.0500,-27.77,102.63
993,9120108.4,0.0500,-27.48,97.87
994,9225714.3,0.0500,-27.39,95.25
995,9332543.0,0.0500,-27.36,91.73
996,9440608.8,0.0500,-27.22,88.05
997,9549925.9,0.0500,-27.28,85.69
998,9660508.8,0.0500,-27.21,82.42
999,9772372.2,0.0500,-27.23,80.40
1000,9885530.9,0.0500,-27.29,80.98
1001,10000000.0,0.0500,-28.04,92.20
