#, Frequency (Hz), Amplitude (Vpp), Gain (dB), Phase (°)
1,100.0,0.0500,-69.26,-7.45
2,101.2,0.0500,-69.91,8.88
3,102.3,0.0500,-67.66,5.12
4,103.5,0.0500,-70.82,-26.39
5,104.7,0.0500,-67.53,3.42
6,105.9,0.0500,-68.86,4.78
7,107.2,0.0500,-70.77,4.91
8,108.4,0.0500,-69.99,-2.12
9,109.6,0.0500,-67.61,-2.20
10,110.9,0.0500,-68.06,6.21
11,112.2,0.0500,-70.30,5.55
12,113.5,0.0500,-66.40,1.26
13,114.8,0.0500,-70.94,-2.83
14,116.1,0.0500,-69.05,4.43
15,117.5,0.0500,-68.58,-2.25
16,118.9,0.0500,-69.45,7.32
17,120.2,0.0500,-67.96,8.78
18,121.6,0.0500,-69.62,0.90
19,123.0,0.0500,-68.67,11.91
20,124.5,0.0500,-66.93,8.59
21,125.9,0.0500,-68.22,-5.85
22,127.4,0.0500,-71.17,5.13
23,128.8,0.0500,-71.15,-5.63
24,130.3,0.0500,-68.26,3.73
25,131.8,0.0500,-68.50,-5.57
26,133.4,0.0500,-70.29,3.69
27,134.9,0.0500,-67.50,-3.54
28,136.5,0.0500,-69.39,-13.27
29,138.0,0.0500,-65.59,8.58
30,139.6,0.0500,-68.10,8.93
31,141.3,0.0500,-71.60,11.38
32,142.9,0.0500,-68.85,-2.29
33,144.5,0.0500,-68.40,-9.08
34,146.2,0.0500,-68.69,-4.69
35,147.9,0.0500,-68.94,9.70
36,149.6,0.0500,-67.92,6.30
37,151.4,0.0500,-70.51,-3.89
38,153.1,0.0500,-69.79,4.54
39,154.9,0.0500,-69.66,-9.89
40,156.7,0.0500,-69.75,18.67
41,158.5,0.0500,-67.82,-11.98
42,160.3,0.0500,-67.19,1.92
43,162.2,0.0500,-68.83,-2.46
44,164.1,0.0500,-67.82,-8.20
45,166.0,0.0500,-68.12,17.54
46,167.9,0.0500,-68.05,3.82
47,169.8,0.0500,-69.48,11.64
48,171.8,0.0500,-69.04,-2.37
49,173.8,0.0500,-68.51,-0.74
50,175.8,0.0500,-66.25,7.21
51,177.8,0.0500,-67.49,6.09
52,179.9,0.0500,-67.69,2.96
53,182.0,0.0500,-67.58,-1.20
54,184.1,0.0500,-68.32,6.52
55,186.2,0.0500,-68.20,1.53
56,188.4,0.0500,-68.27,-0.45
57,190.5,0.0500,-67.94,-4.32
58,192.8,0.0500,-67.82,-0.57
59,195.0,0.0500,-67.90,-2.54
60,197.2,0.0500,-68.54,1.60
61,199.5,0.0500,-67.91,-5.60
62,201.8,0.0500,-67.62,8.22
63,204.2,0.0500,-67.22,3.38
64,206.5,0.0500,-69.07,7.55
65,208.9,0.0500,-67.46,4.79
66,211.3,0.0500,-68.45,18.80
67,213.8,0.0500,-70.75,-8.40
68,216.3,0.0500,-68.93,-4.84
69,218.8,0.0500,-68.03,-11.31
70,221.3,0.0500,-66.89,10.15
71,223.9,0.0500,-69.28,-6.69
72,226.5,0.0500,-66.63,10.08
73,229.1,0.0500,-69.52,1.28
74,231.7,0.0500,-68.23,-9.10
75,234.4,0.0500,-69.62,0.67
76,237.1,0.0500,-68.10,9.11
77,239.9,0.0500,-69.80,3.73
78,242.7,0.0500,-68.61,4.39
79,245.5,0.0500,-69.54,0.14
80,248.3,0.0500,-68.66,9.25
81,251.2,0.0500,-69.57,10.00
82,254.1,0.0500,-70.49,5.35
83,257.0,0.0500,-69.02,-2.50
84,260.0,0.0500,-68.81,8.14
85,263.0,0.0500,-71.05,-9.40
86,266.1,0.0500,-71.09,1.11
87,269.2,0.0500,-67.59,2.92
88,272.3,0.0500,-68.06,-0.58
89,275.4,0.0500,-68.76,11.15
90,278.6,0.0500,-68.55,-8.09
91,281.8,0.0500,-69.11,10.25
92,285.1,0.0500,-68.16,7.36
93,288.4,0.0500,-67.58,-0.87
94,291.7,0.0500,-68.94,0.65
95,295.1,0.0500,-68.59,0.94
96,298.5,0.0500,-69.64,5.22
97,302.0,0.0500,-68.32,-0.85
98,305.5,0.0500,-68.22,10.66
99,309.0,0.0500,-69.20,4.50
100,312.6,0.0500,-68.34,9.26
101,316.2,0.0500,-70.04,5.89
102,319.9,0.0500,-67.43,-6.85
103,323.6,0.0500,-67.68,4.04
104,327.3,0.0500,-69.13,-7.78
105,331.1,0.0500,-67.57,3.10
106,335.0,0.0500,-68.71,8.70
107,338.8,0.0500,-68.47,-6.18
108,342.8,0.0500,-69.85,8.81
109,346.7,0.0500,-70.47,3.07
110,350.8,0.0500,-69.34,-1.39
111,354.8,0.0500,-68.06,1.94
112,358.9,0.0500,-67.83,2.95
113,363.1,0.0500,-68.96,7.88
114,367.3,0.0500,-68.10,3.63
115,371.5,0.0500,-69.52,1.11
116,375.8,0.0500,-69.30,-8.03
117,380.2,0.0500,-69.57,4.44
118,384.6,0.0500,-69.23,9.50
119,389.0,0.0500,-69.05,16.93
120,393.6,0.0500,-68.67,-6.58
121,398.1,0.0500,-67.82,5.40
122,402.7,0.0500,-69.00,-1.27
123,407.4,0.0500,-68.97,8.05
124,412.1,0.0500,-68.78,9.38
125,416.9,0.0500,-69.22,13.33
126,421.7,0.0500,-68.86,-0.20
127,426.6,0.0500,-68.16,7.99
128,431.5,0.0500,-68.40,4.90
129,436.5,0.0500,-68.00,5.62
130,441.6,0.0500,-67.26,-0.94
131,446.7,0.0500,-69.01,4.30
132,451.9,0.0500,-69.41,9.80
133,457.1,0.0500,-69.08,1.52
134,462.4,0.0500,-68.87,5.88
135,467.7,0.0500,-66.51,4.32
136,473.2,0.0500,-68.95,8.62
137,478.6,0.0500,-66.65,11.44
138,484.2,0.0500,-68.84,0.89
139,489.8,0.0500,-68.85,4.39
140,495.5,0.0500,-69.16,8.18
141,501.2,0.0500,-68.25,16.41
142,507.0,0.0500,-68.48,5.75
143,512.9,0.0500,-68.41,5.27
144,518.8,0.0500,-68.37,12.22
145,524.8,0.0500,-68.39,5.26
146,530.9,0.0500,-68.37,11.11
147,537.0,0.0500,-67.73,5.84
148,543.3,0.0500,-69.30,2.95
149,549.5,0.0500,-68.75,7.53
150,555.9,0.0500,-69.57,19.85
151,562.3,0.0500,-70.11,4.27
152,568.9,0.0500,-67.51,9.95
153,575.4,0.0500,-69.55,11.36
154,582.1,0.0500,-68.82,8.89
155,588.8,0.0500,-68.11,1.53
156,595.7,0.0500,-67.96,3.91
157,602.6,0.0500,-69.95,4.31
158,609.5,0.0500,-67.72,5.99
159,616.6,0.0500,-68.50,3.24
160,623.7,0.0500,-69.08,9.04
161,631.0,0.0500,-68.08,16.63
162,638.3,0.0500,-68.60,5.40
163,645.7,0.0500,-68.02,1.95
164,653.1,0.0500,-68.65,11.77
165,660.7,0.0500,-68.65,11.55
166,668.3,0.0500,-69.52,12.43
167,676.1,0.0500,-67.79,12.19
168,683.9,0.0500,-67.91,12.59
169,691.8,0.0500,-67.68,10.77
170,699.8,0.0500,-69.21,10.35
171,707.9,0.0500,-68.02,2.22
172,716.1,0.0500,-68.49,9.10
173,724.4,0.0500,-68.16,8.37
174,732.8,0.0500,-68.17,8.84
175,741.3,0.0500,-70.34,12.31
176,749.9,0.0500,-67.37,8.19
177,758.6,0.0500,-67.78,14.78
178,767.4,0.0500,-67.72,9.18
179,776.2,0.0500,-68.08,14.74
180,785.2,0.0500,-67.96,6.33
181,794.3,0.0500,-67.29,11.19
182,803.5,0.0500,-67.74,9.65
183,812.8,0.0500,-68.81,10.45
184,822.2,0.0500,-69.30,8.56
185,831.8,0.0500,-67.51,14.47
186,841.4,0.0500,-67.94,2.34
187,851.1,0.0500,-67.63,14.75
188,861.0,0.0500,-68.49,3.76
189,871.0,0.0500,-68.54,8.59
190,881.0,0.0500,-68.16,14.42
191,891.3,0.0500,-67.33,11.36
192,901.6,0.0500,-68.27,6.48
193,912.0,0.0500,-68.69,16.21
194,922.6,0.0500,-69.57,8.69
195,933.3,0.0500,-68.71,12.26
196,944.1,0.0500,-68.50,14.46
197,955.0,0.0500,-68.94,12.61
198,966.1,0.0500,-68.49,11.33
199,977.2,0.0500,-68.18,13.21
200,988.6,0.0500,-68.85,15.79
201,1000.0,0.0500,-68.05,14.69
202,1011.6,0.0500,-68.48,17.61
203,1023.3,0.0500,-68.35,16.68
204,1035.1,0.0500,-67.05,17.47
205,1047.1,0.0500,-67.43,15.83
206,1059.3,0.0500,-67.86,15.68
207,1071.5,0.0500,-68.04,4.74
208,1083.9,0.0500,-67.86,9.94
209,1096.5,0.0500,-67.05,14.49
210,1109.2,0.0500,-69.37,19.45
211,1122.0,0.0500,-67.44,6.68
212,1135.0,0.0500,-68.36,15.94
213,1148.2,0.0500,-67.49,15.82
214,1161.4,0.0500,-68.92,18.92
215,1174.9,0.0500,-67.76,18.68
216,1188.5,0.0500,-68.53,20.38
217,1202.3,0.0500,-68.97,17.31
218,1216.2,0.0500,-66.96,21.16
219,1230.3,0.0500,-66.83,18.19
220,1244.5,0.0500,-66.64,17.45
221,1258.9,0.0500,-67.78,16.77
222,1273.5,0.0500,-69.07,11.13
223,1288.2,0.0500,-68.23,16.26
224,1303.2,0.0500,-67.30,15.78
225,1318.3,0.0500,-67.43,33.31
226,1333.5,0.0500,-67.48,8.43
227,1349.0,0.0500,-68.30,19.21
228,1364.6,0.0500,-68.88,18.01
229,1380.4,0.0500,-67.89,13.30
230,1396.4,0.0500,-69.03,11.57
231,1412.5,0.0500,-68.06,15.69
232,1428.9,0.0500,-68.31,11.34
233,1445.4,0.0500,-68.74,19.99
234,1462.2,0.0500,-67.99,18.57
235,1479.1,0.0500,-66.87,13.25
236,1496.2,0.0500,-68.37,12.25
237,1513.6,0.0500,-68.26,20.56
238,1531.1,0.0500,-66.43,25.10
239,1548.8,0.0500,-68.48,23.37
240,1566.8,0.0500,-68.08,19.78
241,1584.9,0.0500,-68.48,19.15
242,1603.2,0.0500,-67.53,18.80
243,1621.8,0.0500,-68.56,24.16
244,1640.6,0.0500,-67.85,18.48
245,1659.6,0.0500,-68.50,31.74
246,1678.8,0.0500,-68.86,28.39
247,1698.2,0.0500,-68.32,24.97
248,1717.9,0.0500,-67.31,22.52
249,1737.8,0.0500,-67.14,22.29
250,1757.9,0.0500,-69.14,14.94
251,1778.3,0.0500,-68.34,31.68
252,1798.9,0.0500,-68.59,26.57
253,1819.7,0.0500,-67.00,15.39
254,1840.8,0.0500,-67.74,21.95
255,1862.1,0.0500,-67.16,21.67
256,1883.6,0.0500,-67.86,16.26
257,1905.5,0.0500,-68.43,20.83
258,1927.5,0.0500,-67.81,12.91
259,1949.8,0.0500,-66.93,14.78
260,1972.4,0.0500,-67.95,23.68
261,1995.3,0.0500,-66.62,16.58
262,2018.4,0.0500,-68.12,20.09
263,2041.7,0.0500,-68.54,22.95
264,2065.4,0.0500,-67.85,22.63
265,2089.3,0.0500,-67.96,25.01
266,2113.5,0.0500,-68.89,28.99
267,2138.0,0.0500,-67.47,21.03
268,2162.7,0.0500,-67.80,25.30
269,2187.8,0.0500,-67.33,26.57
270,2213.1,0.0500,-67.49,29.43
271,2238.7,0.0500,-67.08,25.55
272,2264.6,0.0500,-67.13,26.49
273,2290.9,0.0500,-67.66,18.96
274,2317.4,0.0500,-68.47,29.69
275,2344.2,0.0500,-66.79,25.64
276,2371.4,0.0500,-66.90,26.62
277,2398.8,0.0500,-67.35,29.74
278,2426.6,0.0500,-67.66,26.12
279,2454.7,0.0500,-67.99,31.04
280,2483.1,0.0500,-66.79,27.60
281,2511.9,0.0500,-67.49,30.75
282,2541.0,0.0500,-67.45,27.48
283,2570.4,0.0500,-67.97,34.01
284,2600.2,0.0500,-66.52,29.52
285,2630.3,0.0500,-67.57,32.60
286,2660.7,0.0500,-66.12,29.54
287,2691.5,0.0500,-67.35,26.52
288,2722.7,0.0500,-66.95,36.15
289,2754.2,0.0500,-66.59,34.89
290,2786.1,0.0500,-67.35,38.11
291,2818.4,0.0500,-66.21,35.70
292,2851.0,0.0500,-66.28,30.76
293,2884.0,0.0500,-67.40,31.95
294,2917.4,0.0500,-67.13,29.23
295,2951.2,0.0500,-67.21,33.65
296,2985.4,0.0500,-67.38,35.33
297,3020.0,0.0500,-65.86,32.64
298,3054.9,0.0500,-65.89,30.57
299,3090.3,0.0500,-66.69,33.74
300,3126.1,0.0500,-66.47,39.44
301,3162.3,0.0500,-65.66,34.37
302,3198.9,0.0500,-66.33,42.76
303,3235.9,0.0500,-67.71,37.95
304,3273.4,0.0500,-65.33,30.79
305,3311.3,0.0500,-66.35,31.73
306,3349.7,0.0500,-67.02,32.95
307,3388.4,0.0500,-66.08,34.26
308,3427.7,0.0500,-66.37,37.70
309,3467.4,0.0500,-65.52,37.51
310,3507.5,0.0500,-66.56,43.41
311,3548.1,0.0500,-67.15,36.31
312,3589.2,0.0500,-66.28,41.90
313,3630.8,0.0500,-65.72,33.37
314,3672.8,0.0500,-65.64,39.82
315,3715.4,0.0500,-66.70,41.57
316,3758.4,0.0500,-65.74,40.24
317,3801.9,0.0500,-66.54,41.53
318,3845.9,0.0500,-66.14,39.08
319,3890.5,0.0500,-65.23,48.48
320,3935.5,0.0500,-64.78,45.50
321,3981.1,0.0500,-67.30,35.64
322,4027.2,0.0500,-65.56,41.28
323,4073.8,0.0500,-66.84,41.32
324,4121.0,0.0500,-65.35,42.26
325,4168.7,0.0500,-65.64,39.48
326,4217.0,0.0500,-65.92,40.87
327,4265.8,0.0500,-65.11,34.73
328,4315.2,0.0500,-65.49,40.59
329,4365.2,0.0500,-65.70,43.41
330,4415.7,0.0500,-65.01,44.28
331,4466.8,0.0500,-65.46,45.08
332,4518.6,0.0500,-66.31,43.06
333,4570.9,0.0500,-64.86,48.63
334,4623.8,0.0500,-65.39,40.78
335,4677.4,0.0500,-64.82,41.69
336,4731.5,0.0500,-65.18,51.75
337,4786.3,0.0500,-64.82,50.11
338,4841.7,0.0500,-65.67,41.64
339,4897.8,0.0500,-66.04,41.08
340,4954.5,0.0500,-64.20,44.21
341,5011.9,0.0500,-65.92,44.73
342,5069.9,0.0500,-64.91,51.41
343,5128.6,0.0500,-65.07,43.66
344,5188.0,0.0500,-64.28,51.11
345,5248.1,0.0500,-64.48,45.20
346,5308.8,0.0500,-64.97,48.61
347,5370.3,0.0500,-64.72,45.91
348,5432.5,0.0500,-65.10,43.97
349,5495.4,0.0500,-64.40,44.72
350,5559.0,0.0500,-63.83,49.61
351,5623.4,0.0500,-64.67,51.88
352,5688.5,0.0500,-63.81,48.33
353,5754.4,0.0500,-64.56,52.04
354,5821.0,0.0500,-64.50,52.29
355,5888.4,0.0500,-64.02,51.71
356,5956.6,0.0500,-64.10,47.17
357,6025.6,0.0500,-63.67,46.73
358,6095.4,0.0500,-64.04,53.37
359,6166.0,0.0500,-63.85,53.84
360,6237.3,0.0500,-63.46,47.93
361,6309.6,0.0500,-63.31,53.43
362,6382.6,0.0500,-63.46,49.19
363,6456.5,0.0500,-63.43,51.58
364,6531.3,0.0500,-62.55,53.78
365,6606.9,0.0500,-63.78,50.83
366,6683.4,0.0500,-63.83,50.01
367,6760.8,0.0500,-63.46,57.38
368,6839.1,0.0500,-63.48,58.23
369,6918.3,0.0500,-63.02,51.77
370,6998.4,0.0500,-63.03,51.60
371,7079.5,0.0500,-62.77,51.53
372,7161.4,0.0500,-62.57,56.17
373,7244.4,0.0500,-63.83,56.13
374,7328.2,0.0500,-63.06,52.64
375,7413.1,0.0500,-62.38,55.57
376,7498.9,0.0500,-62.46,58.15
377,7585.8,0.0500,-61.58,55.43
378,7673.6,0.0500,-62.39,53.58
379,7762.5,0.0500,-62.33,56.42
380,7852.4,0.0500,-61.88,56.04
381,7943.3,0.0500,-61.71,58.35
382,8035.3,0.0500,-62.32,55.70
383,8128.3,0.0500,-61.91,51.50
384,8222.4,0.0500,-61.89,56.07
385,8317.6,0.0500,-61.72,56.40
386,8414.0,0.0500,-62.00,55.88
387,8511.4,0.0500,-61.72,54.85
388,8609.9,0.0500,-61.64,58.31
389,8709.6,0.0500,-61.59,55.83
390,8810.5,0.0500,-61.19,57.58
391,8912.5,0.0500,-61.57,58.05
392,9015.7,0.0500,-61.29,55.28
393,9120.1,0.0500,-60.91,55.70
394,9225.7,0.0500,-61.31,61.28
395,9332.5,0.0500,-60.57,55.76
396,9440.6,0.0500,-60.93,58.15
397,9549.9,0.0500,-60.69,57.71
398,9660.5,0.0500,-60.53,59.52
399,9772.4,0.0500,-61.22,61.11
400,9885.5,0.0500,-61.07,55.57
401,10000.0,0.0500,-60.89,58.69
402,10115.8,0.0500,-60.11,60.74
403,10232.9,0.0500,-60.26,58.25
404,10351.4,0.0500,-60.66,60.24
405,10471.3,0.0500,-60.59,59.52
406,10592.5,0.0500,-59.75,57.00
407,10715.2,0.0500,-60.03,58.01
408,10839.3,0.0500,-60.52,59.58
409,10964.8,0.0500,-59.72,59.89
410,11091.7,0.0500,-59.79,60.24
411,11220.2,0.0500,-59.79,57.32
412,11350.1,0.0500,-59.63,61.27
413,11481.5,0.0500,-59.53,59.72
414,11614.5,0.0500,-59.13,60.35
415,11749.0,0.0500,-59.97,62.02
416,11885.0,0.0500,-59.50,59.69
417,12022.6,0.0500,-59.65,61.26
418,12161.9,0.0500,-59.62,62.61
419,12302.7,0.0500,-59.23,63.57
420,12445.1,0.0500,-59.22,62.50
421,12589.3,0.0500,-58.73,62.91
422,12735.0,0.0500,-59.07,62.54
423,12882.5,0.0500,-58.84,62.92
424,13031.7,0.0500,-58.64,62.50
425,13182.6,0.0500,-58.42,62.46
426,13335.2,0.0500,-58.64,59.81
427,13489.6,0.0500,-58.85,60.59
428,13645.8,0.0500,-58.87,64.36
429,13803.8,0.0500,-58.59,62.25
430,13963.7,0.0500,-58.20,60.56
431,14125.4,0.0500,-58.21,61.32
432,14288.9,0.0500,-58.33,62.31
433,14454.4,0.0500,-58.03,61.42
434,14621.8,0.0500,-57.87,63.45
435,14791.1,0.0500,-57.79,62.92
436,14962.4,0.0500,-57.89,61.67
437,15135.6,0.0500,-57.57,62.82
438,15310.9,0.0500,-57.61,58.96
439,15488.2,0.0500,-57.71,59.25
440,15667.5,0.0500,-57.35,64.14
441,15848.9,0.0500,-57.42,62.97
442,16032.5,0.0500,-57.17,63.51
443,16218.1,0.0500,-57.37,64.20
444,16405.9,0.0500,-57.18,62.59
445,16595.9,0.0500,-56.99,62.88
446,16788.0,0.0500,-57.24,64.70
447,16982.4,0.0500,-57.07,62.61
448,17179.1,0.0500,-57.00,63.99
449,17378.0,0.0500,-56.93,66.05
450,17579.2,0.0500,-56.85,64.82
451,17782.8,0.0500,-56.85,61.33
452,17988.7,0.0500,-56.40,63.74
453,18197.0,0.0500,-56.15,63.16
454,18407.7,0.0500,-56.70,63.73
455,18620.9,0.0500,-56.54,62.53
456,18836.5,0.0500,-56.17,62.90
457,19054.6,0.0500,-55.81,62.25
458,19275.2,0.0500,-56.04,62.69
459,19498.4,0.0500,-56.18,64.62
460,19724.2,0.0500,-55.65,64.62
461,19952.6,0.0500,-56.13,63.22
462,20183.7,0.0500,-55.93,61.80
463,20417.4,0.0500,-55.90,63.66
464,20653.8,0.0500,-55.48,65.52
465,20893.0,0.0500,-55.41,64.13
466,21134.9,0.0500,-55.40,64.32
467,21379.6,0.0500,-55.43,62.78
468,21627.2,0.0500,-55.16,64.80
469,21877.6,0.0500,-55.09,63.59
470,22130.9,0.0500,-54.96,62.70
471,22387.2,0.0500,-54.66,64.25
472,22646.4,0.0500,-54.73,65.40
473,22908.7,0.0500,-54.73,63.89
474,23173.9,0.0500,-54.72,65.27
475,23442.3,0.0500,-54.66,63.81
476,23713.7,0.0500,-54.52,65.42
477,23988.3,0.0500,-54.69,64.73
478,24266.1,0.0500,-54.44,62.78
479,24547.1,0.0500,-54.50,66.16
480,24831.3,0.0500,-54.08,64.75
481,25118.9,0.0500,-54.26,64.55
482,25409.7,0.0500,-53.98,64.85
483,25704.0,0.0500,-54.44,64.43
484,26001.6,0.0500,-54.35,63.23
485,26302.7,0.0500,-53.80,63.66
486,26607.3,0.0500,-53.90,64.88
487,26915.3,0.0500,-53.89,64.97
488,27227.0,0.0500,-53.78,64.55
489,27542.3,0.0500,-53.63,64.98
490,27861.2,0.0500,-53.65,66.01
491,28183.8,0.0500,-53.57,64.48
492,28510.2,0.0500,-53.36,64.22
493,28840.3,0.0500,-53.27,64.85
494,29174.3,0.0500,-53.22,65.33
495,29512.1,0.0500,-53.21,64.82
496,29853.8,0.0500,-53.05,64.82
497,30199.5,0.0500,-52.81,65.63
498,30549.2,0.0500,-52.85,65.03
499,30903.0,0.0500,-52.89,65.61
500,31260.8,0.0500,-53.14,65.99
501,31622.8,0.0500,-52.73,66.72
502,31989.0,0.0500,-52.35,66.60
503,32359.4,0.0500,-52.72,64.97
504,32734.1,0.0500,-52.46,64.87
505,33113.1,0.0500,-52.53,65.18
506,33496.5,0.0500,-52.27,67.24
507,33884.4,0.0500,-52.07,65.36
508,34276.8,0.0500,-52.26,67.17
509,34673.7,0.0500,-51.71,66.01
510,35075.2,0.0500,-51.86,65.84
511,35481.3,0.0500,-52.00,67.45
512,35892.2,0.0500,-51.91,65.98
513,36307.8,0.0500,-51.69,66.01
514,36728.2,0.0500,-51.73,66.30
515,37153.5,0.0500,-51.72,66.68
516,37583.7,0.0500,-51.20,65.20
517,38018.9,0.0500,-51.81,66.14
518,38459.2,0.0500,-51.46,66.13
519,38904.5,0.0500,-51.43,66.42
520,39355.0,0.0500,-51.56,68.11
521,39810.7,0.0500,-51.27,69.13
522,40271.7,0.0500,-50.82,64.26
523,40738.0,0.0500,-51.04,67.23
524,41209.8,0.0500,-50.95,67.59
525,41686.9,0.0500,-50.90,68.23
526,42169.7,0.0500,-50.72,67.50
527,42658.0,0.0500,-50.59,67.73
528,43151.9,0.0500,-50.33,65.00
529,43651.6,0.0500,-50.75,66.91
530,44157.0,0.0500,-50.63,69.01
531,44668.4,0.0500,-50.44,67.16
532,45185.6,0.0500,-50.14,66.44
533,45708.8,0.0500,-50.50,67.68
534,46238.1,0.0500,-50.49,65.83
535,46773.5,0.0500,-49.97,66.35
536,47315.1,0.0500,-49.87,68.23
537,47863.0,0.0500,-49.84,68.51
538,48417.2,0.0500,-50.18,68.48
539,48977.9,0.0500,-49.81,69.50
540,49545.0,0.0500,-49.60,70.26
541,50118.7,0.0500,-49.50,66.19
542,50699.1,0.0500,-49.63,69.65
543,51286.1,0.0500,-49.29,67.09
544,51880.0,0.0500,-49.14,70.08
545,52480.7,0.0500,-49.56,68.46
546,53088.4,0.0500,-49.15,66.77
547,53703.2,0.0500,-48.99,68.10
548,54325.0,0.0500,-49.03,69.93
549,54954.1,0.0500,-48.97,66.00
550,55590.4,0.0500,-48.79,67.27
551,56234.1,0.0500,-48.71,67.61
552,56885.3,0.0500,-48.79,66.71
553,57544.0,0.0500,-48.69,67.14
554,58210.3,0.0500,-48.35,70.06
555,58884.4,0.0500,-48.64,65.95
556,59566.2,0.0500,-48.66,67.86
557,60256.0,0.0500,-48.45,68.45
558,60953.7,0.0500,-47.94,67.75
559,61659.5,0.0500,-48.03,67.30
560,62373.5,0.0500,-47.92,67.54
561,63095.7,0.0500,-48.18,67.88
562,63826.3,0.0500,-47.89,69.88
563,64565.4,0.0500,-47.82,66.94
564,65313.1,0.0500,-47.80,68.00
565,66069.3,0.0500,-47.70,67.03
566,66834.4,0.0500,-47.56,67.94
567,67608.3,0.0500,-48.04,69.81
568,68391.2,0.0500,-47.48,67.49
569,69183.1,0.0500,-47.23,67.48
570,69984.2,0.0500,-47.42,67.99
571,70794.6,0.0500,-47.21,66.70
572,71614.3,0.0500,-46.97,68.68
573,72443.6,0.0500,-46.96,68.83
574,73282.5,0.0500,-46.77,68.60
575,74131.0,0.0500,-46.70,69.32
576,74989.4,0.0500,-46.74,67.32
577,75857.8,0.0500,-46.44,69.50
578,76736.1,0.0500,-46.42,68.95
579,77624.7,0.0500,-46.35,68.70
580,78523.6,0.0500,-46.29,69.33
581,79432.8,0.0500,-46.35,69.72
582,80352.6,0.0500,-46.09,68.98
583,81283.1,0.0500,-46.12,68.44
584,82224.3,0.0500,-46.09,69.79
585,83176.4,0.0500,-45.78,69.69
586,84139.5,0.0500,-45.76,68.47
587,85113.8,0.0500,-45.84,69.69
588,86099.4,0.0500,-45.65,69.43
589,87096.4,0.0500,-45.52,68.98
590,88104.9,0.0500,-45.48,69.79
591,89125.1,0.0500,-45.34,69.81
592,90157.1,0.0500,-45.17,68.87
593,91201.1,0.0500,-45.18,69.85
594,92257.1,0.0500,-45.21,70.43
595,93325.4,0.0500,-45.04,69.30
596,94406.1,0.0500,-44.95,70.27
597,95499.3,0.0500,-44.80,70.08
598,96605.1,0.0500,-44.88,69.08
599,97723.7,0.0500,-44.62,69.72
600,98855.3,0.0500,-44.56,69.62
601,100000.0,0.0500,-44.64,70.43
602,101157.9,0.0500,-44.32,69.83
603,102329.3,0.0500,-44.26,70.12
604,103514.2,0.0500,-44.23,70.09
605,104712.9,0.0500,-44.13,70.57
606,105925.4,0.0500,-44.05,70.28
607,107151.9,0.0500,-44.09,70.93
608,108392.7,0.0500,-43.94,70.96
609,109647.8,0.0500,-43.92,70.23
610,110917.5,0.0500,-43.82,70.55
611,112201.8,0.0500,-43.78,70.93
612,113501.1,0.0500,-43.64,70.52
613,114815.4,0.0500,-43.59,70.61
614,116144.9,0.0500,-43.48,70.74
615,117489.8,0.0500,-43.32,70.94
616,118850.2,0.0500,-43.32,70.96
617,120226.4,0.0500,-43.20,70.47
618,121618.6,0.0500,-43.13,70.49
619,123026.9,0.0500,-43.04,70.93
620,124451.5,0.0500,-42.80,72.02
621,125892.5,0.0500,-42.79,71.10
622,127350.3,0.0500,-42.72,70.38
623,128825.0,0.0500,-42.66,71.24
624,130316.7,0.0500,-42.54,70.02
625,131825.7,0.0500,-42.48,72.18
626,133352.1,0.0500,-42.49,71.07
627,134896.3,0.0500,-42.21,71.08
628,136458.3,0.0500,-42.18,69.87
629,138038.4,0.0500,-42.28,69.95
630,139636.8,0.0500,-41.96,71.15
631,141253.8,0.0500,-41.90,70.57
632,142889.4,0.0500,-41.84,70.57
633,144544.0,0.0500,-41.70,71.23
634,146217.7,0.0500,-41.63,71.88
635,147910.8,0.0500,-41.67,70.75
636,149623.6,0.0500,-41.58,71.54
637,151356.1,0.0500,-41.40,71.24
638,153108.7,0.0500,-41.20,71.60
639,154881.7,0.0500,-41.18,71.58
640,156675.1,0.0500,-41.10,71.37
641,158489.3,0.0500,-41.09,71.15
642,160324.5,0.0500,-40.99,70.43
643,162181.0,0.0500,-40.79,71.15
644,164059.0,0.0500,-40.92,70.90
645,165958.7,0.0500,-40.85,70.58
646,167880.4,0.0500,-40.67,71.00
647,169824.4,0.0500,-40.58,71.57
648,171790.8,0.0500,-40.43,70.76
649,173780.1,0.0500,-40.29,71.54
650,175792.4,0.0500,-40.44,71.71
651,177827.9,0.0500,-40.06,71.81
652,179887.1,0.0500,-40.01,71.39
653,181970.1,0.0500,-40.31,71.71
654,184077.2,0.0500,-39.99,71.96
655,186208.7,0.0500,-39.72,72.34
656,188364.9,0.0500,-39.46,72.05
657,190546.1,0.0500,-39.48,70.71
658,192752.5,0.0500,-39.48,72.47
659,194984.5,0.0500,-39.56,70.45
660,197242.3,0.0500,-39.27,70.65
661,199526.2,0.0500,-39.12,71.69
662,201836.6,0.0500,-39.07,71.53
663,204173.8,0.0500,-38.88,71.46
664,206538.0,0.0500,-38.83,72.01
665,208929.6,0.0500,-38.80,71.57
666,211348.9,0.0500,-38.83,70.26
667,213796.2,0.0500,-38.70,70.59
668,216271.9,0.0500,-38.51,71.39
669,218776.2,0.0500,-38.49,70.69
670,221309.5,0.0500,-38.40,72.14
671,223872.1,0.0500,-38.28,70.52
672,226464.4,0.0500,-38.23,71.24
673,229086.8,0.0500,-37.86,70.44
674,231739.5,0.0500,-37.98,71.62
675,234422.9,0.0500,-37.93,70.72
676,237137.4,0.0500,-37.93,70.71
677,239883.3,0.0500,-37.83,70.57
678,242661.0,0.0500,-37.76,70.10
679,245470.9,0.0500,-37.49,69.19
680,248313.3,0.0500,-37.59,69.83
681,251188.6,0.0500,-37.35,69.79
682,254097.3,0.0500,-37.22,70.83
683,257039.6,0.0500,-37.00,67.86
684,260016.0,0.0500,-37.01,69.55
685,263026.8,0.0500,-36.96,68.80
686,266072.5,0.0500,-36.81,70.55
687,269153.5,0.0500,-36.89,69.45
688,272270.1,0.0500,-36.69,70.23
689,275422.9,0.0500,-36.66,70.05
690,278612.1,0.0500,-36.67,69.51
691,281838.3,0.0500,-36.46,69.19
692,285101.8,0.0500,-36.33,69.81
693,288403.2,0.0500,-36.33,68.83
694,291742.7,0.0500,-36.17,68.76
695,295120.9,0.0500,-36.16,69.90
696,298538.3,0.0500,-35.99,69.69
697,301995.2,0.0500,-36.10,68.43
698,305492.1,0.0500,-35.68,68.75
699,309029.5,0.0500,-35.69,68.34
700,312607.9,0.0500,-35.77,68.96
701,316227.8,0.0500,-35.37,70.33
702,319889.5,0.0500,-35.55,68.12
703,323593.7,0.0500,-35.25,69.23
704,327340.7,0.0500,-35.19,68.24
705,331131.1,0.0500,-35.10,65.58
706,334965.4,0.0500,-35.03,68.57
707,338844.2,0.0500,-34.80,68.25
708,342767.8,0.0500,-34.75,67.31
709,346736.9,0.0500,-34.79,67.27
710,350751.9,0.0500,-34.68,68.34
711,354813.4,0.0500,-34.60,67.01
712,358921.9,0.0500,-34.37,67.10
713,363078.1,0.0500,-34.20,68.31
714,367282.3,0.0500,-34.31,66.97
715,371535.2,0.0500,-34.34,67.10
716,375837.4,0.0500,-34.25,67.58
717,380189.4,0.0500,-34.01,67.52
718,384591.8,0.0500,-33.88,66.80
719,389045.1,0.0500,-33.85,66.07
720,393550.1,0.0500,-33.70,66.15
721,398107.2,0.0500,-33.65,65.51
722,402717.0,0.0500,-33.62,65.22
723,407380.3,0.0500,-33.46,64.94
724,412097.5,0.0500,-33.30,65.50
725,416869.4,0.0500,-33.28,66.65
726,421696.5,0.0500,-33.24,65.01
727,426579.5,0.0500,-33.10,64.27
728,431519.1,0.0500,-32.95,64.30
729,436515.8,0.0500,-32.93,64.73
730,441570.4,0.0500,-32.86,64.17
731,446683.6,0.0500,-32.74,64.50
732,451855.9,0.0500,-32.59,65.12
733,457088.2,0.0500,-32.63,64.78
734,462381.0,0.0500,-32.40,63.81
735,467735.1,0.0500,-32.44,64.00
736,473151.3,0.0500,-32.19,63.52
737,478630.1,0.0500,-32.14,63.78
738,484172.4,0.0500,-32.09,64.26
739,489778.8,0.0500,-31.96,63.37
740,495450.2,0.0500,-31.96,64.29
741,501187.2,0.0500,-31.89,63.06
742,506990.7,0.0500,-31.77,62.85
743,512861.4,0.0500,-31.51,62.28
744,518800.0,0.0500,-31.51,60.00
745,524807.5,0.0500,-31.65,62.60
746,530884.4,0.0500,-31.34,60.29
747,537031.8,0.0500,-31.18,59.78
748,543250.3,0.0500,-31.35,62.27
749,549540.9,0.0500,-31.32,61.08
750,555904.3,0.0500,-31.10,61.06
751,562341.3,0.0500,-30.73,61.27
752,568852.9,0.0500,-30.80,59.51
753,575439.9,0.0500,-30.50,60.70
754,582103.2,0.0500,-30.61,60.72
755,588843.7,0.0500,-30.49,60.19
756,595662.1,0.0500,-30.40,59.81
757,602559.6,0.0500,-30.37,59.04
758,609536.9,0.0500,-30.05,59.45
759,616595.0,0.0500,-30.23,58.44
760,623734.8,0.0500,-30.11,57.92
761,630957.3,0.0500,-29.78,58.23
762,638263.5,0.0500,-29.77,58.31
763,645654.2,0.0500,-29.72,58.22
764,653130.6,0.0500,-29.67,57.62
765,660693.4,0.0500,-29.63,57.97
766,668343.9,0.0500,-29.45,58.04
767,676083.0,0.0500,-29.35,56.69
768,683911.6,0.0500,-29.21,56.16
769,691831.0,0.0500,-29.07,56.99
770,699842.0,0.0500,-29.24,56.26
771,707945.8,0.0500,-29.05,55.58
772,716143.4,0.0500,-29.02,55.49
773,724436.0,0.0500,-28.75,55.04
774,732824.5,0.0500,-28.61,54.99
775,741310.2,0.0500,-28.62,54.28
776,749894.2,0.0500,-28.45,54.02
777,758577.6,0.0500,-28.59,52.03
778,767361.5,0.0500,-28.36,54.48
779,776247.1,0.0500,-28.18,53.96
780,785235.6,0.0500,-28.20,53.08
781,794328.2,0.0500,-28.09,52.62
782,803526.1,0.0500,-28.00,52.22
783,812830.5,0.0500,-27.83,52.34
784,822242.6,0.0500,-27.77,50.92
785,831763.8,0.0500,-27.67,50.68
786,841395.1,0.0500,-27.51,50.87
787,851138.0,0.0500,-27.43,51.14
788,860993.8,0.0500,-27.38,50.55
789,870963.6,0.0500,-27.28,49.93
790,881048.9,0.0500,-27.12,50.00
791,891250.9,0.0500,-27.10,48.64
792,901571.1,0.0500,-26.96,48.26
793,912010.8,0.0500,-26.90,47.84
794,922571.4,0.0500,-26.64,47.00
795,933254.3,0.0500,-26.67,47.37
796,944060.9,0.0500,-26.63,47.12
797,954992.6,0.0500,-26.56,46.04
798,966050.9,0.0500,-26.38,46.59
799,977237.2,0.0500,-26.33,45.59
800,988553.1,0.0500,-26.11,45.11
801,1000000.0,0.0500,-26.16,44.79
802,1011579.5,0.0500,-26.01,45.05
803,1023293.0,0.0500,-25.90,43.42
804,1035142.2,0.0500,-25.90,43.22
805,1047128.5,0.0500,-25.82,41.77
806,1059253.7,0.0500,-25.63,41.25
807,1071519.3,0.0500,-25.55,42.10
808,1083926.9,0.0500,-25.44,41.30
809,1096478.2,0.0500,-25.44,41.07
810,1109174.8,0.0500,-25.32,40.93
811,1122018.5,0.0500,-25.05,39.08
812,1135010.8,0.0500,-25.05,37.25
813,1148153.6,0.0500,-24.99,39.46
814,1161448.6,0.0500,-24.89,38.26
815,1174897.6,0.0500,-24.89,37.39
816,1188502.2,0.0500,-24.61,36.19
817,1202264.4,0.0500,-24.67,36.97
818,1216186.0,0.0500,-24.57,33.49
819,1230268.8,0.0500,-24.36,34.21
820,1244514.6,0.0500,-24.28,33.82
821,1258925.4,0.0500,-24.32,32.63
822,1273503.1,0.0500,-24.10,32.41
823,1288249.6,0.0500,-23.87,32.27
824,1303166.8,0.0500,-23.78,30.15
825,1318256.7,0.0500,-23.76,30.04
826,1333521.4,0.0500,-23.85,30.44
827,1348962.9,0.0500,-23.66,28.60
828,1364583.1,0.0500,-23.53,28.48
829,1380384.3,0.0500,-23.31,26.60
830,1396368.4,0.0500,-23.39,27.97
831,1412537.5,0.0500,-23.13,26.59
832,1428894.0,0.0500,-23.15,25.15
833,1445439.8,0.0500,-23.08,23.02
834,1462177.2,0.0500,-22.99,23.18
835,1479108.4,0.0500,-22.86,21.95
836,1496235.7,0.0500,-22.88,21.31
837,1513561.2,0.0500,-22.81,20.44
838,1531087.5,0.0500,-22.62,20.53
839,1548816.6,0.0500,-22.57,18.68
840,1566751.1,0.0500,-22.69,15.78
841,1584893.2,0.0500,-22.32,16.81
842,1603245.4,0.0500,-22.35,15.24
843,1621810.1,0.0500,-22.31,15.42
844,1640589.8,0.0500,-22.21,13.36
845,1659586.9,0.0500,-22.15,12.14
846,1678804.0,0.0500,-22.13,10.45
847,1698243.7,0.0500,-22.01,11.16
848,1717908.4,0.0500,-22.05,8.92
849,1737800.8,0.0500,-21.93,7.61
850,1757923.6,0.0500,-21.84,6.21
851,1778279.4,0.0500,-21.83,5.39
852,1798870.9,0.0500,-21.73,3.81
853,1819700.9,0.0500,-21.35,3.19
854,1840772.0,0.0500,-21.44,2.12
855,1862087.1,0.0500,-21.64,1.39
856,1883649.1,0.0500,-21.63,-0.95
857,1905460.7,0.0500,-21.43,-0.73
858,1927524.9,0.0500,-21.53,-4.08
859,1949844.6,0.0500,-21.36,-3.37
860,1972422.7,0.0500,-21.68,-5.77
861,1995262.3,0.0500,-21.46,-6.53
862,2018366.4,0.0500,-21.27,-5.21
863,2041737.9,0.0500,-21.53,-8.96
864,2065380.2,0.0500,-21.54,-10.68
865,2089296.1,0.0500,-21.55,-12.31
866,2113489.0,0.0500,-21.67,-13.23
867,2137962.1,0.0500,-21.58,-13.06
868,2162718.5,0.0500,-21.71,-17.70
869,2187761.6,0.0500,-21.58,-15.53
870,2213094.7,0.0500,-21.65,-18.59
871,2238721.1,0.0500,-21.72,-19.04
872,2264644.3,0.0500,-21.73,-20.97
873,2290867.7,0.0500,-21.73,-21.84
874,2317394.6,0.0500,-21.81,-26.61
875,2344228.8,0.0500,-21.87,-25.79
876,2371373.7,0.0500,-21.99,-25.97
877,2398832.9,0.0500,-21.95,-28.19
878,2426610.1,0.0500,-21.95,-29.21
879,2454708.9,0.0500,-22.22,-30.26
880,2483133.1,0.0500,-22.17,-31.28
881,2511886.4,0.0500,-22.25,-32.85
882,2540972.7,0.0500,-22.27,-34.91
883,2570395.8,0.0500,-22.25,-32.45
884,2600159.6,0.0500,-22.62,-35.44
885,2630268.0,0.0500,-22.75,-35.73
886,2660725.1,0.0500,-22.67,-40.77
887,2691534.8,0.0500,-22.87,-38.22
888,2722701.3,0.0500,-23.02,-40.47
889,2754228.7,0.0500,-22.99,-41.40
890,2786121.2,0.0500,-20.92,-47.82
891,2818382.9,0.0500,-24.28,-43.58
892,2851018.3,0.0500,-23.26,-44.25
893,2884031.5,0.0500,-23.51,-43.98
894,2917427.0,0.0500,-23.48,-45.48
895,2951209.2,0.0500,-23.63,-47.91
896,2985382.6,0.0500,-23.71,-47.19
897,3019951.7,0.0500,-23.86,-48.85
898,3054921.1,0.0500,-23.89,-50.12
899,3090295.4,0.0500,-25.01,-45.49
900,3126079.4,0.0500,-24.15,-49.64
901,3162277.7,0.0500,-24.27,-52.32
902,3198895.1,0.0500,-24.32,-52.85
903,3235936.6,0.0500,-24.41,-52.89
904,3273406.9,0.0500,-26.03,-63.13
905,3311311.2,0.0500,-24.66,-53.55
906,3349654.4,0.0500,-24.74,-54.75
907,3388441.6,0.0500,-24.94,-56.16
908,3427677.9,0.0500,-25.19,-56.65
909,3467368.5,0.0500,-25.12,-57.52
910,3507518.7,0.0500,-25.23,-59.27
911,3548133.9,0.0500,-25.51,-58.52
912,3589219.3,0.0500,-25.49,-60.36
913,3630780.5,0.0500,-28.09,-63.63
914,3672823.0,0.0500,-25.79,-62.43
915,3715352.3,0.0500,-24.99,-61.79
916,3758374.0,0.0500,-26.01,-60.65
917,3801894.0,0.0500,-26.21,-62.39
918,3845917.8,0.0500,-26.32,-64.50
919,3890451.4,0.0500,-26.37,-63.13
920,3935500.8,0.0500,-26.52,-64.64
921,3981071.7,0.0500,-26.54,-65.20
922,4027170.3,0.0500,-26.77,-66.42
923,4073802.8,0.0500,-26.76,-65.49
924,4120975.2,0.0500,-27.65,-66.34
925,4168693.8,0.0500,-26.05,-67.73
926,4216965.0,0.0500,-27.12,-67.38
927,4265795.2,0.0500,-27.25,-69.05
928,4315190.8,0.0500,-27.40,-71.85
929,4365158.3,0.0500,-27.48,-71.62
930,4415704.5,0.0500,-27.74,-71.74
931,4466835.9,0.0500,-27.84,-74.08
932,4518559.4,0.0500,-27.91,-72.36
933,4570881.9,0.0500,-28.13,-71.04
934,4623810.2,0.0500,-28.42,-74.46
935,4677351.4,0.0500,-28.12,-73.46
936,4731512.6,0.0500,-28.40,-75.53
937,4786300.9,0.0500,-28.63,-72.50
938,4841723.7,0.0500,-28.46,-72.01
939,4897788.2,0.0500,-28.72,-75.75
940,4954501.9,0.0500,-28.85,-76.13
941,5011872.3,0.0500,-29.16,-76.96
942,5069907.1,0.0500,-33.80,-79.33
943,5128613.8,0.0500,-28.97,-74.84
944,5188000.4,0.0500,-29.21,-79.33
945,5248074.6,0.0500,-28.85,-81.30
946,5308844.4,0.0500,-29.60,-77.05
947,5370318.0,0.0500,-29.94,-79.52
948,5432503.3,0.0500,-29.74,-78.77
949,5495408.7,0.0500,-29.86,-75.60
950,5559042.6,0.0500,-30.21,-77.97
951,5623413.3,0.0500,-30.09,-81.52
952,5688529.3,0.0500,-31.24,-80.55
953,5754399.4,0.0500,-30.44,-81.39
954,5821032.2,0.0500,-30.62,-79.18
955,5888436.6,0.0500,-30.66,-80.37
956,5956621.4,0.0500,-30.77,-84.24
957,6025595.9,0.0500,-31.01,-81.92
958,6095369.0,0.0500,-31.46,-84.91
959,6165950.0,0.0500,-31.93,-84.79
960,6237348.4,0.0500,-31.50,-86.53
961,6309573.4,0.0500,-31.14,-88.29
962,6382634.9,0.0500,-32.10,-72.90
963,6456542.3,0.0500,-31.66,-84.89
964,6531305.5,0.0500,-33.28,-77.69
965,6606934.5,0.0500,-31.76,-78.71
966,6683439.2,0.0500,-33.35,-83.02
967,6760829.8,0.0500,-32.13,-90.57
968,6839116.5,0.0500,-30.11,-83.38
969,6918309.7,0.0500,-32.49,-93.59
970,6998420.0,0.0500,-32.00,-89.21
971,7079457.8,0.0500,-32.95,-87.75
972,7161434.1,0.0500,-33.63,-89.75
973,7244359.6,0.0500,-33.41,-88.31
974,7328245.3,0.0500,-32.84,-94.77
975,7413102.4,0.0500,-33.31,-89.78
976,7498942.1,0.0500,-32.65,-95.02
977,7585775.8,0.0500,-33.73,-95.10
978,7673614.9,0.0500,-33.22,-90.49
979,7762471.2,0.0500,-33.70,-96.17
980,7852356.3,0.0500,-34.19,-91.33
981,7943282.3,0.0500,-34.95,-94.36
982,8035261.2,0.0500,-34.33,-98.99
983,8128305.2,0.0500,-34.57,-98.44
984,8222426.5,0.0500,-34.91,-95.42
985,8317637.7,0.0500,-34.93,-95.28
986,8413951.4,0.0500,-34.79,-98.64
987,8511380.4,0.0500,-35.61,-94.09
988,8609937.5,0.0500,-34.95,-98.30
989,8709635.9,0.0500,-34.10,-101.94
990,8810488.7,0.0500,-35.59,-102.28
991,8912509.4,0.0500,-35.58,-98.99
992,9015711.4,0.0500,-39.50,-101.31
993,9120108.4,0.0500,-35.33,-96.99
994,9225714.3,0.0500,-35.84,-100.14
995,9332543.0,0.0500,-36.44,-96.20
996,9440608.8,0.0500,-36.07,-107.14
997,9549925.9,0.0500,-36.31,-104.54
998,9660508.8,0.0500,-36.79,-102.10
999,9772372.2,0.0500,-37.06,-103.38
1000,9885530.9,0.0500,-37.00,-99.41
1001,10000000.0,0.0500,-37.43,-98.84
