#, Frequency (Hz), Amplitude (Vpp), Gain (dB), Phase (°)
1,100.0,0.0500,-71.47,9.87
2,101.2,0.0500,-70.56,-13.32
3,102.3,0.0500,-70.55,6.62
4,103.5,0.0500,-70.57,-5.08
5,104.7,0.0500,-70.44,-16.68
6,105.9,0.0500,-72.93,-13.16
7,107.2,0.0500,-69.82,-2.65
8,108.4,0.0500,-71.37,3.45
9,109.6,0.0500,-72.81,21.06
10,110.9,0.0500,-69.04,-10.00
11,112.2,0.0500,-71.14,6.00
12,113.5,0.0500,-75.10,-1.04
13,114.8,0.0500,-71.30,5.60
14,116.1,0.0500,-70.62,-7.42
15,117.5,0.0500,-72.78,7.52
16,118.9,0.0500,-70.86,7.79
17,120.2,0.0500,-71.93,-1.09
18,121.6,0.0500,-70.46,-21.51
19,123.0,0.0500,-75.65,12.76
20,124.5,0.0500,-74.08,13.07
21,125.9,0.0500,-70.15,-0.95
22,127.4,0.0500,-70.95,-4.41
23,128.8,0.0500,-72.10,2.93
24,130.3,0.0500,-72.90,15.52
25,131.8,0.0500,-71.30,3.92
26,133.4,0.0500,-72.91,3.95
27,134.9,0.0500,-73.44,-18.04
28,136.5,0.0500,-73.33,15.84
29,138.0,0.0500,-69.80,1.35
30,139.6,0.0500,-71.43,15.77
31,141.3,0.0500,-72.14,21.46
32,142.9,0.0500,-70.38,4.82
33,144.5,0.0500,-70.26,4.32
34,146.2,0.0500,-68.77,9.26
35,147.9,0.0500,-73.71,18.47
36,149.6,0.0500,-69.76,-0.11
37,151.4,0.0500,-69.53,0.89
38,153.1,0.0500,-68.87,8.45
39,154.9,0.0500,-71.90,5.01
40,156.7,0.0500,-70.69,-13.23
41,158.5,0.0500,-72.52,16.16
42,160.3,0.0500,-73.13,2.58
43,162.2,0.0500,-70.82,-3.28
44,164.1,0.0500,-70.65,-4.16
45,166.0,0.0500,-70.72,0.35
46,167.9,0.0500,-72.55,-11.11
47,169.8,0.0500,-72.19,-2.74
48,171.8,0.0500,-73.01,4.69
49,173.8,0.0500,-72.48,-5.25
50,175.8,0.0500,-70.97,-0.05
51,177.8,0.0500,-72.74,5.36
52,179.9,0.0500,-69.71,-5.15
53,182.0,0.0500,-70.67,12.00
54,184.1,0.0500,-70.64,-3.23
55,186.2,0.0500,-71.38,5.48
56,188.4,0.0500,-70.84,-10.15
57,190.5,0.0500,-71.28,11.04
58,192.8,0.0500,-73.23,-4.94
59,195.0,0.0500,-70.65,18.21
60,197.2,0.0500,-74.06,0.05
61,199.5,0.0500,-72.33,8.21
62,201.8,0.0500,-71.88,-11.05
63,204.2,0.0500,-70.14,1.30
64,206.5,0.0500,-74.01,1.01
65,208.9,0.0500,-72.55,-5.86
66,211.3,0.0500,-69.35,-0.99
67,213.8,0.0500,-71.58,4.50
68,216.3,0.0500,-70.59,-4.49
69,218.8,0.0500,-70.56,19.23
70,221.3,0.0500,-73.23,-2.19
71,223.9,0.0500,-70.41,4.35
72,226.5,0.0500,-71.57,-3.44
73,229.1,0.0500,-70.32,-14.47
74,231.7,0.0500,-69.89,3.70
75,234.4,0.0500,-73.64,-2.70
76,237.1,0.0500,-71.76,6.93
77,239.9,0.0500,-70.90,-4.65
78,242.7,0.0500,-72.15,-4.62
79,245.5,0.0500,-70.41,6.20
80,248.3,0.0500,-71.57,6.09
81,251.2,0.0500,-70.25,4.63
82,254.1,0.0500,-71.09,3.15
83,257.0,0.0500,-71.57,-1.07
84,260.0,0.0500,-71.04,-1.20
85,263.0,0.0500,-69.65,10.49
86,266.1,0.0500,-70.48,-3.00
87,269.2,0.0500,-71.41,-2.43
88,272.3,0.0500,-72.35,-1.08
89,275.4,0.0500,-73.50,4.77
90,278.6,0.0500,-73.24,-2.59
91,281.8,0.0500,-70.51,12.45
92,285.1,0.0500,-70.70,2.37
93,288.4,0.0500,-73.26,11.57
94,291.7,0.0500,-70.38,6.57
95,295.1,0.0500,-71.40,12.13
96,298.5,0.0500,-71.37,-4.50
97,302.0,0.0500,-71.38,5.95
98,305.5,0.0500,-70.10,-3.51
99,309.0,0.0500,-71.51,4.05
100,312.6,0.0500,-70.02,8.60
101,316.2,0.0500,-72.85,6.59
102,319.9,0.0500,-71.54,0.16
103,323.6,0.0500,-69.85,13.53
104,327.3,0.0500,-70.65,-3.22
105,331.1,0.0500,-72.27,-6.18
106,335.0,0.0500,-70.84,-2.48
107,338.8,0.0500,-71.38,12.96
108,342.8,0.0500,-71.60,12.07
109,346.7,0.0500,-73.10,20.86
110,350.8,0.0500,-71.76,0.95
111,354.8,0.0500,-70.82,-0.76
112,358.9,0.0500,-71.86,-11.01
113,363.1,0.0500,-72.04,6.25
114,367.3,0.0500,-69.78,6.05
115,371.5,0.0500,-69.39,0.26
116,375.8,0.0500,-70.23,-10.37
117,380.2,0.0500,-69.21,-5.20
118,384.6,0.0500,-72.08,-10.59
119,389.0,0.0500,-71.11,-8.24
120,393.6,0.0500,-70.24,14.68
121,398.1,0.0500,-70.15,4.27
122,402.7,0.0500,-69.93,-1.46
123,407.4,0.0500,-70.84,15.60
124,412.1,0.0500,-70.37,-6.26
125,416.9,0.0500,-71.87,12.81
126,421.7,0.0500,-70.42,9.68
127,426.6,0.0500,-71.54,18.20
128,431.5,0.0500,-72.22,7.37
129,436.5,0.0500,-70.57,6.62
130,441.6,0.0500,-73.40,3.47
131,446.7,0.0500,-70.46,2.87
132,451.9,0.0500,-70.20,7.15
133,457.1,0.0500,-71.72,7.09
134,462.4,0.0500,-72.70,-0.33
135,467.7,0.0500,-71.85,7.89
136,473.2,0.0500,-70.09,10.42
137,478.6,0.0500,-69.83,8.25
138,484.2,0.0500,-70.05,5.28
139,489.8,0.0500,-72.39,8.96
140,495.5,0.0500,-70.98,2.76
141,501.2,0.0500,-68.73,16.40
142,507.0,0.0500,-70.26,8.00
143,512.9,0.0500,-71.71,-12.77
144,518.8,0.0500,-70.79,3.05
145,524.8,0.0500,-71.06,10.57
146,530.9,0.0500,-69.85,7.44
147,537.0,0.0500,-71.05,6.95
148,543.3,0.0500,-71.32,3.51
149,549.5,0.0500,-70.00,9.66
150,555.9,0.0500,-71.33,7.28
151,562.3,0.0500,-70.26,6.75
152,568.9,0.0500,-71.27,2.65
153,575.4,0.0500,-70.56,2.45
154,582.1,0.0500,-72.44,-7.28
155,588.8,0.0500,-71.30,9.54
156,595.7,0.0500,-71.64,5.76
157,602.6,0.0500,-70.64,15.23
158,609.5,0.0500,-71.63,5.06
159,616.6,0.0500,-71.50,11.35
160,623.7,0.0500,-71.41,0.64
161,631.0,0.0500,-71.68,0.24
162,638.3,0.0500,-71.43,0.33
163,645.7,0.0500,-70.49,14.95
164,653.1,0.0500,-70.39,-5.67
165,660.7,0.0500,-74.35,-0.97
166,668.3,0.0500,-70.87,21.53
167,676.1,0.0500,-72.09,10.21
168,683.9,0.0500,-70.80,-1.43
169,691.8,0.0500,-70.48,6.41
170,699.8,0.0500,-70.24,16.77
171,707.9,0.0500,-71.30,10.42
172,716.1,0.0500,-71.40,8.94
173,724.4,0.0500,-71.91,0.29
174,732.8,0.0500,-70.59,6.24
175,741.3,0.0500,-70.78,2.84
176,749.9,0.0500,-71.96,15.56
177,758.6,0.0500,-70.09,20.56
178,767.4,0.0500,-72.40,12.30
179,776.2,0.0500,-70.33,0.39
180,785.2,0.0500,-71.67,9.67
181,794.3,0.0500,-71.29,10.39
182,803.5,0.0500,-68.73,11.27
183,812.8,0.0500,-70.66,9.51
184,822.2,0.0500,-70.59,15.61
185,831.8,0.0500,-71.29,15.67
186,841.4,0.0500,-69.93,6.98
187,851.1,0.0500,-69.46,9.38
188,861.0,0.0500,-71.51,9.52
189,871.0,0.0500,-71.05,10.82
190,881.0,0.0500,-72.05,19.05
191,891.3,0.0500,-72.84,3.63
192,901.6,0.0500,-71.51,13.00
193,912.0,0.0500,-70.09,0.56
194,922.6,0.0500,-70.24,11.97
195,933.3,0.0500,-72.54,16.56
196,944.1,0.0500,-71.13,6.44
197,955.0,0.0500,-70.70,11.96
198,966.1,0.0500,-71.10,5.41
199,977.2,0.0500,-69.57,22.82
200,988.6,0.0500,-70.34,10.34
201,1000.0,0.0500,-69.93,7.09
202,1011.6,0.0500,-68.80,8.51
203,1023.3,0.0500,-71.05,16.78
204,1035.1,0.0500,-70.24,7.34
205,1047.1,0.0500,-71.38,-3.93
206,1059.3,0.0500,-69.48,16.09
207,1071.5,0.0500,-71.22,22.37
208,1083.9,0.0500,-70.29,22.54
209,1096.5,0.0500,-69.81,13.36
210,1109.2,0.0500,-70.68,8.41
211,1122.0,0.0500,-70.48,22.23
212,1135.0,0.0500,-70.89,9.95
213,1148.2,0.0500,-70.46,16.45
214,1161.4,0.0500,-70.50,7.26
215,1174.9,0.0500,-71.04,10.35
216,1188.5,0.0500,-69.21,20.10
217,1202.3,0.0500,-70.19,6.98
218,1216.2,0.0500,-69.60,15.48
219,1230.3,0.0500,-71.36,2.38
220,1244.5,0.0500,-70.98,17.64
221,1258.9,0.0500,-70.76,2.36
222,1273.5,0.0500,-70.27,10.60
223,1288.2,0.0500,-70.38,12.55
224,1303.2,0.0500,-72.12,26.37
225,1318.3,0.0500,-70.88,-2.49
226,1333.5,0.0500,-70.83,10.31
227,1349.0,0.0500,-69.49,13.55
228,1364.6,0.0500,-70.49,21.39
229,1380.4,0.0500,-70.11,22.56
230,1396.4,0.0500,-70.80,14.62
231,1412.5,0.0500,-71.69,28.94
232,1428.9,0.0500,-71.45,6.74
233,1445.4,0.0500,-69.99,17.30
234,1462.2,0.0500,-70.00,21.42
235,1479.1,0.0500,-70.91,12.66
236,1496.2,0.0500,-71.62,26.85
237,1513.6,0.0500,-72.41,19.28
238,1531.1,0.0500,-69.96,21.18
239,1548.8,0.0500,-72.26,6.37
240,1566.8,0.0500,-70.81,15.04
241,1584.9,0.0500,-68.83,26.96
242,1603.2,0.0500,-72.25,21.41
243,1621.8,0.0500,-70.69,8.28
244,1640.6,0.0500,-67.98,29.35
245,1659.6,0.0500,-69.40,14.90
246,1678.8,0.0500,-69.30,31.55
247,1698.2,0.0500,-68.81,14.09
248,1717.9,0.0500,-70.38,22.74
249,1737.8,0.0500,-71.97,12.04
250,1757.9,0.0500,-69.58,40.70
251,1778.3,0.0500,-69.82,9.07
252,1798.9,0.0500,-71.86,7.50
253,1819.7,0.0500,-69.73,16.28
254,1840.8,0.0500,-70.65,24.30
255,1862.1,0.0500,-70.36,26.15
256,1883.6,0.0500,-68.58,12.24
257,1905.5,0.0500,-71.35,23.31
258,1927.5,0.0500,-71.44,41.15
259,1949.8,0.0500,-69.67,21.06
260,1972.4,0.0500,-72.59,12.76
261,1995.3,0.0500,-71.29,17.63
262,2018.4,0.0500,-70.54,14.89
263,2041.7,0.0500,-71.19,20.55
264,2065.4,0.0500,-70.89,12.33
265,2089.3,0.0500,-70.58,25.80
266,2113.5,0.0500,-68.19,18.06
267,2138.0,0.0500,-70.77,24.55
268,2162.7,0.0500,-70.13,25.23
269,2187.8,0.0500,-69.53,18.63
270,2213.1,0.0500,-70.32,17.57
271,2238.7,0.0500,-70.76,31.41
272,2264.6,0.0500,-69.20,24.99
273,2290.9,0.0500,-68.70,11.26
274,2317.4,0.0500,-70.87,36.22
275,2344.2,0.0500,-68.44,23.00
276,2371.4,0.0500,-69.02,22.20
277,2398.8,0.0500,-69.18,29.50
278,2426.6,0.0500,-69.11,25.62
279,2454.7,0.0500,-70.38,22.17
280,2483.1,0.0500,-70.44,19.91
281,2511.9,0.0500,-68.10,23.86
282,2541.0,0.0500,-68.92,27.40
283,2570.4,0.0500,-68.77,18.38
284,2600.2,0.0500,-71.23,22.11
285,2630.3,0.0500,-69.51,31.22
286,2660.7,0.0500,-69.67,29.79
287,2691.5,0.0500,-69.48,28.17
288,2722.7,0.0500,-69.91,45.31
289,2754.2,0.0500,-69.96,35.11
290,2786.1,0.0500,-67.35,33.67
291,2818.4,0.0500,-69.94,21.93
292,2851.0,0.0500,-70.77,27.46
293,2884.0,0.0500,-69.77,40.33
294,2917.4,0.0500,-69.97,43.50
295,2951.2,0.0500,-69.58,28.56
296,2985.4,0.0500,-71.04,28.70
297,3020.0,0.0500,-68.78,11.10
298,3054.9,0.0500,-68.86,18.90
299,3090.3,0.0500,-68.14,32.78
300,3126.1,0.0500,-67.83,31.46
301,3162.3,0.0500,-70.47,36.33
302,3198.9,0.0500,-69.06,28.56
303,3235.9,0.0500,-67.59,36.73
304,3273.4,0.0500,-68.86,45.03
305,3311.3,0.0500,-69.59,37.44
306,3349.7,0.0500,-68.80,41.82
307,3388.4,0.0500,-69.08,32.86
308,3427.7,0.0500,-69.98,42.36
309,3467.4,0.0500,-67.60,39.59
310,3507.5,0.0500,-67.93,34.43
311,3548.1,0.0500,-67.20,33.60
312,3589.2,0.0500,-69.16,45.12
313,3630.8,0.0500,-69.55,45.60
314,3672.8,0.0500,-67.73,35.41
315,3715.4,0.0500,-68.14,32.23
316,3758.4,0.0500,-70.24,42.49
317,3801.9,0.0500,-68.01,35.77
318,3845.9,0.0500,-68.62,27.58
319,3890.5,0.0500,-68.20,38.74
320,3935.5,0.0500,-69.29,43.96
321,3981.1,0.0500,-69.52,40.64
322,4027.2,0.0500,-68.08,46.74
323,4073.8,0.0500,-69.21,41.85
324,4121.0,0.0500,-68.07,45.25
325,4168.7,0.0500,-68.43,42.44
326,4217.0,0.0500,-68.63,41.96
327,4265.8,0.0500,-67.84,42.28
328,4315.2,0.0500,-68.85,40.90
329,4365.2,0.0500,-67.05,38.00
330,4415.7,0.0500,-68.90,42.37
331,4466.8,0.0500,-67.21,41.26
332,4518.6,0.0500,-69.01,44.16
333,4570.9,0.0500,-68.06,36.00
334,4623.8,0.0500,-68.03,42.48
335,4677.4,0.0500,-66.71,36.04
336,4731.5,0.0500,-67.23,48.80
337,4786.3,0.0500,-68.08,51.34
338,4841.7,0.0500,-67.12,54.50
339,4897.8,0.0500,-68.12,48.08
340,4954.5,0.0500,-65.93,42.46
341,5011.9,0.0500,-68.06,50.72
342,5069.9,0.0500,-68.28,46.70
343,5128.6,0.0500,-68.22,44.40
344,5188.0,0.0500,-68.66,55.29
345,5248.1,0.0500,-67.71,51.16
346,5308.8,0.0500,-66.67,48.80
347,5370.3,0.0500,-66.77,50.50
348,5432.5,0.0500,-68.42,50.56
349,5495.4,0.0500,-66.73,59.64
350,5559.0,0.0500,-65.95,56.54
351,5623.4,0.0500,-67.17,57.24
352,5688.5,0.0500,-67.23,46.25
353,5754.4,0.0500,-66.77,47.47
354,5821.0,0.0500,-66.93,52.92
355,5888.4,0.0500,-67.52,54.24
356,5956.6,0.0500,-66.56,55.25
357,6025.6,0.0500,-67.33,44.41
358,6095.4,0.0500,-65.97,44.50
359,6166.0,0.0500,-66.11,58.46
360,6237.3,0.0500,-66.00,55.01
361,6309.6,0.0500,-65.21,52.29
362,6382.6,0.0500,-66.49,48.52
363,6456.5,0.0500,-66.10,56.43
364,6531.3,0.0500,-66.00,59.20
365,6606.9,0.0500,-66.31,51.29
366,6683.4,0.0500,-65.86,54.56
367,6760.8,0.0500,-66.61,57.52
368,6839.1,0.0500,-64.76,60.06
369,6918.3,0.0500,-65.29,57.64
370,6998.4,0.0500,-66.78,57.24
371,7079.5,0.0500,-65.61,55.42
372,7161.4,0.0500,-66.49,61.77
373,7244.4,0.0500,-65.88,59.26
374,7328.2,0.0500,-65.07,62.14
375,7413.1,0.0500,-65.90,60.67
376,7498.9,0.0500,-65.73,60.52
377,7585.8,0.0500,-64.60,60.22
378,7673.6,0.0500,-63.67,53.44
379,7762.5,0.0500,-65.96,58.73
380,7852.4,0.0500,-66.05,60.74
381,7943.3,0.0500,-64.58,65.81
382,8035.3,0.0500,-65.28,60.35
383,8128.3,0.0500,-64.27,55.96
384,8222.4,0.0500,-64.40,60.95
385,8317.6,0.0500,-65.26,61.12
386,8414.0,0.0500,-65.12,61.27
387,8511.4,0.0500,-64.62,63.74
388,8609.9,0.0500,-63.67,64.43
389,8709.6,0.0500,-64.44,59.32
390,8810.5,0.0500,-64.42,58.48
391,8912.5,0.0500,-64.49,60.70
392,9015.7,0.0500,-64.32,59.53
393,9120.1,0.0500,-63.90,67.19
394,9225.7,0.0500,-63.88,65.45
395,9332.5,0.0500,-64.02,62.81
396,9440.6,0.0500,-63.28,62.48
397,9549.9,0.0500,-63.70,63.72
398,9660.5,0.0500,-63.78,66.61
399,9772.4,0.0500,-62.96,62.07
400,9885.5,0.0500,-63.39,62.22
401,10000.0,0.0500,-62.96,67.92
402,10115.8,0.0500,-63.66,66.87
403,10232.9,0.0500,-63.92,62.94
404,10351.4,0.0500,-63.18,62.40
405,10471.3,0.0500,-62.66,66.96
406,10592.5,0.0500,-62.96,66.68
407,10715.2,0.0500,-62.76,63.58
408,10839.3,0.0500,-62.75,65.93
409,10964.8,0.0500,-62.55,67.15
410,11091.7,0.0500,-63.01,66.06
411,11220.2,0.0500,-62.55,69.78
412,11350.1,0.0500,-62.76,67.18
413,11481.5,0.0500,-62.61,66.88
414,11614.5,0.0500,-62.51,69.48
415,11749.0,0.0500,-62.12,67.93
416,11885.0,0.0500,-61.69,68.63
417,12022.6,0.0500,-61.99,68.55
418,12161.9,0.0500,-62.38,67.78
419,12302.7,0.0500,-62.51,71.31
420,12445.1,0.0500,-61.64,66.62
421,12589.3,0.0500,-61.79,70.16
422,12735.0,0.0500,-61.33,69.96
423,12882.5,0.0500,-61.64,71.52
424,13031.7,0.0500,-61.53,69.63
425,13182.6,0.0500,-62.00,70.28
426,13335.2,0.0500,-61.80,72.42
427,13489.6,0.0500,-61.81,70.13
428,13645.8,0.0500,-61.63,68.48
429,13803.8,0.0500,-61.08,71.66
430,13963.7,0.0500,-60.98,71.24
431,14125.4,0.0500,-60.44,71.77
432,14288.9,0.0500,-60.80,72.86
433,14454.4,0.0500,-60.93,74.35
434,14621.8,0.0500,-60.54,73.42
435,14791.1,0.0500,-60.25,74.52
436,14962.4,0.0500,-60.18,70.70
437,15135.6,0.0500,-60.38,74.47
438,15310.9,0.0500,-59.85,73.88
439,15488.2,0.0500,-60.22,72.40
440,15667.5,0.0500,-59.65,74.61
441,15848.9,0.0500,-59.79,73.95
442,16032.5,0.0500,-59.91,77.57
443,16218.1,0.0500,-59.27,73.39
444,16405.9,0.0500,-59.52,73.10
445,16595.9,0.0500,-59.75,75.25
446,16788.0,0.0500,-59.66,71.64
447,16982.4,0.0500,-59.69,73.72
448,17179.1,0.0500,-59.56,72.55
449,17378.0,0.0500,-59.01,77.70
450,17579.2,0.0500,-59.23,73.34
451,17782.8,0.0500,-59.38,74.56
452,17988.7,0.0500,-58.86,72.66
453,18197.0,0.0500,-59.29,76.37
454,18407.7,0.0500,-58.67,76.23
455,18620.9,0.0500,-58.62,75.07
456,18836.5,0.0500,-58.60,75.61
457,19054.6,0.0500,-58.36,73.69
458,19275.2,0.0500,-58.47,76.65
459,19498.4,0.0500,-58.36,77.76
460,19724.2,0.0500,-58.12,77.06
461,19952.6,0.0500,-58.10,75.76
462,20183.7,0.0500,-57.64,78.98
463,20417.4,0.0500,-58.01,77.11
464,20653.8,0.0500,-57.82,77.60
465,20893.0,0.0500,-57.80,78.60
466,21134.9,0.0500,-57.35,78.30
467,21379.6,0.0500,-57.76,76.78
468,21627.2,0.0500,-57.20,79.16
469,21877.6,0.0500,-57.39,77.09
470,22130.9,0.0500,-57.28,79.82
471,22387.2,0.0500,-56.91,78.93
472,22646.4,0.0500,-56.88,77.16
473,22908.7,0.0500,-56.88,80.62
474,23173.9,0.0500,-57.03,79.06
475,23442.3,0.0500,-57.03,80.34
476,23713.7,0.0500,-56.87,77.51
477,23988.3,0.0500,-56.88,79.62
478,24266.1,0.0500,-56.59,78.53
479,24547.1,0.0500,-56.32,80.78
480,24831.3,0.0500,-56.37,78.14
481,25118.9,0.0500,-56.48,80.64
482,25409.7,0.0500,-56.16,79.29
483,25704.0,0.0500,-55.76,80.40
484,26001.6,0.0500,-56.01,81.62
485,26302.7,0.0500,-56.02,80.91
486,26607.3,0.0500,-55.86,79.66
487,26915.3,0.0500,-55.42,81.48
488,27227.0,0.0500,-55.69,78.09
489,27542.3,0.0500,-55.47,79.03
490,27861.2,0.0500,-55.19,80.80
491,28183.8,0.0500,-55.06,81.50
492,28510.2,0.0500,-54.93,81.47
493,28840.3,0.0500,-54.67,80.55
494,29174.3,0.0500,-55.02,80.54
495,29512.1,0.0500,-54.81,80.20
496,29853.8,0.0500,-54.61,80.49
497,30199.5,0.0500,-54.50,80.52
498,30549.2,0.0500,-54.38,80.96
499,30903.0,0.0500,-54.65,80.92
500,31260.8,0.0500,-54.35,79.24
501,31622.8,0.0500,-54.11,81.18
502,31989.0,0.0500,-54.13,79.92
503,32359.4,0.0500,-53.73,82.14
504,32734.1,0.0500,-53.82,80.68
505,33113.1,0.0500,-53.40,84.21
506,33496.5,0.0500,-53.57,82.96
507,33884.4,0.0500,-53.86,82.85
508,34276.8,0.0500,-53.54,82.66
509,34673.7,0.0500,-53.03,79.33
510,35075.2,0.0500,-53.30,84.14
511,35481.3,0.0500,-53.24,83.19
512,35892.2,0.0500,-53.56,81.99
513,36307.8,0.0500,-52.89,82.97
514,36728.2,0.0500,-52.56,82.85
515,37153.5,0.0500,-52.72,84.26
516,37583.7,0.0500,-52.61,83.05
517,38018.9,0.0500,-52.47,79.58
518,38459.2,0.0500,-52.48,83.13
519,38904.5,0.0500,-52.28,83.75
520,39355.0,0.0500,-52.53,84.62
521,39810.7,0.0500,-52.57,83.98
522,40271.7,0.0500,-51.90,83.56
523,40738.0,0.0500,-52.15,83.26
524,41209.8,0.0500,-51.51,82.73
525,41686.9,0.0500,-52.06,82.41
526,42169.7,0.0500,-51.71,84.90
527,42658.0,0.0500,-51.19,81.11
528,43151.9,0.0500,-51.19,83.60
529,43651.6,0.0500,-51.24,83.98
530,44157.0,0.0500,-51.36,83.72
531,44668.4,0.0500,-51.21,85.29
532,45185.6,0.0500,-50.97,86.43
533,45708.8,0.0500,-50.54,85.68
534,46238.1,0.0500,-50.92,83.08
535,46773.5,0.0500,-50.53,85.14
536,47315.1,0.0500,-50.44,89.08
537,47863.0,0.0500,-50.31,84.09
538,48417.2,0.0500,-50.15,84.20
539,48977.9,0.0500,-50.12,83.15
540,49545.0,0.0500,-50.25,86.46
541,50118.7,0.0500,-49.64,86.10
542,50699.1,0.0500,-50.01,84.08
543,51286.1,0.0500,-50.43,86.66
544,51880.0,0.0500,-49.67,88.23
545,52480.7,0.0500,-49.50,83.26
546,53088.4,0.0500,-49.70,83.17
547,53703.2,0.0500,-49.35,81.97
548,54325.0,0.0500,-48.95,86.61
549,54954.1,0.0500,-49.25,82.35
550,55590.4,0.0500,-48.68,84.63
551,56234.1,0.0500,-49.18,82.09
552,56885.3,0.0500,-48.81,84.64
553,57544.0,0.0500,-48.78,84.11
554,58210.3,0.0500,-48.94,85.23
555,58884.4,0.0500,-49.01,84.01
556,59566.2,0.0500,-48.53,83.78
557,60256.0,0.0500,-48.70,84.00
558,60953.7,0.0500,-48.62,84.52
559,61659.5,0.0500,-48.46,82.20
560,62373.5,0.0500,-47.73,82.22
561,63095.7,0.0500,-47.95,83.45
562,63826.3,0.0500,-47.56,81.78
563,64565.4,0.0500,-47.90,85.31
564,65313.1,0.0500,-47.69,83.00
565,66069.3,0.0500,-47.75,80.51
566,66834.4,0.0500,-47.66,83.37
567,67608.3,0.0500,-47.05,84.62
568,68391.2,0.0500,-47.35,84.83
569,69183.1,0.0500,-47.32,82.02
570,69984.2,0.0500,-47.44,84.11
571,70794.6,0.0500,-47.01,84.65
572,71614.3,0.0500,-47.10,84.30
573,72443.6,0.0500,-46.86,83.61
574,73282.5,0.0500,-46.76,84.41
575,74131.0,0.0500,-46.84,84.06
576,74989.4,0.0500,-46.57,85.20
577,75857.8,0.0500,-46.52,83.78
578,76736.1,0.0500,-46.59,83.66
579,77624.7,0.0500,-46.38,85.40
580,78523.6,0.0500,-46.21,84.40
581,79432.8,0.0500,-45.91,84.09
582,80352.6,0.0500,-45.92,84.70
583,81283.1,0.0500,-45.94,84.35
584,82224.3,0.0500,-45.84,84.39
585,83176.4,0.0500,-45.69,83.36
586,84139.5,0.0500,-45.71,83.05
587,85113.8,0.0500,-45.66,84.41
588,86099.4,0.0500,-45.51,85.34
589,87096.4,0.0500,-45.29,85.18
590,88104.9,0.0500,-45.12,84.24
591,89125.1,0.0500,-45.09,85.18
592,90157.1,0.0500,-45.03,86.58
593,91201.1,0.0500,-44.94,84.33
594,92257.1,0.0500,-44.91,84.82
595,93325.4,0.0500,-44.75,85.31
596,94406.1,0.0500,-44.73,85.90
597,95499.3,0.0500,-44.53,85.30
598,96605.1,0.0500,-44.77,83.19
599,97723.7,0.0500,-44.37,85.31
600,98855.3,0.0500,-44.30,85.14
601,100000.0,0.0500,-44.30,85.68
602,101157.9,0.0500,-44.19,84.42
603,102329.3,0.0500,-43.86,84.64
604,103514.2,0.0500,-43.65,86.56
605,104712.9,0.0500,-43.72,85.44
606,105925.4,0.0500,-43.75,85.25
607,107151.9,0.0500,-43.49,85.38
608,108392.7,0.0500,-43.40,85.77
609,109647.8,0.0500,-43.39,83.89
610,110917.5,0.0500,-43.28,84.80
611,112201.8,0.0500,-43.24,84.21
612,113501.1,0.0500,-43.12,84.22
613,114815.4,0.0500,-42.90,85.75
614,116144.9,0.0500,-42.80,85.42
615,117489.8,0.0500,-42.66,84.53
616,118850.2,0.0500,-42.60,84.15
617,120226.4,0.0500,-42.49,85.67
618,121618.6,0.0500,-42.41,85.59
619,123026.9,0.0500,-42.30,85.78
620,124451.5,0.0500,-42.50,85.87
621,125892.5,0.0500,-42.07,85.99
622,127350.3,0.0500,-42.01,83.61
623,128825.0,0.0500,-41.99,85.66
624,130316.7,0.0500,-41.84,86.71
625,131825.7,0.0500,-41.80,84.66
626,133352.1,0.0500,-41.60,84.65
627,134896.3,0.0500,-41.52,84.04
628,136458.3,0.0500,-41.26,83.98
629,138038.4,0.0500,-41.34,86.08
630,139636.8,0.0500,-41.26,85.36
631,141253.8,0.0500,-40.99,84.95
632,142889.4,0.0500,-41.05,85.65
633,144544.0,0.0500,-41.05,84.80
634,146217.7,0.0500,-40.70,84.05
635,147910.8,0.0500,-40.66,85.05
636,149623.6,0.0500,-40.57,85.27
637,151356.1,0.0500,-40.53,84.52
638,153108.7,0.0500,-40.53,84.46
639,154881.7,0.0500,-40.26,84.01
640,156675.1,0.0500,-40.19,84.71
641,158489.3,0.0500,-39.90,84.45
642,160324.5,0.0500,-39.83,83.58
643,162181.0,0.0500,-39.85,85.66
644,164059.0,0.0500,-39.97,84.55
645,165958.7,0.0500,-39.68,85.07
646,167880.4,0.0500,-39.57,85.50
647,169824.4,0.0500,-39.28,83.97
648,171790.8,0.0500,-39.38,85.35
649,173780.1,0.0500,-39.34,85.02
650,175792.4,0.0500,-39.06,85.30
651,177827.9,0.0500,-38.99,84.36
652,179887.1,0.0500,-39.05,85.31
653,181970.1,0.0500,-38.82,84.81
654,184077.2,0.0500,-38.81,84.39
655,186208.7,0.0500,-38.91,83.17
656,188364.9,0.0500,-38.61,84.07
657,190546.1,0.0500,-38.39,85.06
658,192752.5,0.0500,-38.39,84.41
659,194984.5,0.0500,-38.26,84.79
660,197242.3,0.0500,-37.99,84.35
661,199526.2,0.0500,-37.92,84.80
662,201836.6,0.0500,-37.95,85.22
663,204173.8,0.0500,-38.02,85.76
664,206538.0,0.0500,-37.66,84.37
665,208929.6,0.0500,-37.57,84.03
666,211348.9,0.0500,-37.52,84.48
667,213796.2,0.0500,-37.49,83.95
668,216271.9,0.0500,-37.33,84.45
669,218776.2,0.0500,-37.12,84.30
670,221309.5,0.0500,-36.94,83.83
671,223872.1,0.0500,-37.02,84.10
672,226464.4,0.0500,-36.95,84.36
673,229086.8,0.0500,-36.65,83.98
674,231739.5,0.0500,-36.47,83.03
675,234422.9,0.0500,-36.48,83.60
676,237137.4,0.0500,-36.36,83.98
677,239883.3,0.0500,-36.32,83.00
678,242661.0,0.0500,-36.23,83.35
679,245470.9,0.0500,-36.20,83.43
680,248313.3,0.0500,-35.93,83.17
681,251188.6,0.0500,-35.86,83.37
682,254097.3,0.0500,-35.74,82.79
683,257039.6,0.0500,-35.81,81.18
684,260016.0,0.0500,-35.65,83.78
685,263026.8,0.0500,-35.53,83.00
686,266072.5,0.0500,-35.27,83.50
687,269153.5,0.0500,-35.41,83.57
688,272270.1,0.0500,-35.24,83.66
689,275422.9,0.0500,-35.11,82.67
690,278612.1,0.0500,-34.85,83.17
691,281838.3,0.0500,-34.86,82.78
692,285101.8,0.0500,-34.65,83.53
693,288403.2,0.0500,-34.53,83.45
694,291742.7,0.0500,-34.38,83.09
695,295120.9,0.0500,-34.28,82.86
696,298538.3,0.0500,-34.35,82.73
697,301995.2,0.0500,-34.17,82.66
698,305492.1,0.0500,-34.17,82.91
699,309029.5,0.0500,-33.91,82.78
700,312607.9,0.0500,-33.91,82.78
701,316227.8,0.0500,-33.84,82.68
702,319889.5,0.0500,-33.74,82.37
703,323593.7,0.0500,-33.51,80.75
704,327340.7,0.0500,-33.45,81.31
705,331131.1,0.0500,-33.26,80.12
706,334965.4,0.0500,-33.25,82.41
707,338844.2,0.0500,-33.02,82.51
708,342767.8,0.0500,-32.95,82.17
709,346736.9,0.0500,-32.89,82.65
710,350751.9,0.0500,-32.74,81.71
711,354813.4,0.0500,-32.72,82.10
712,358921.9,0.0500,-32.45,81.52
713,363078.1,0.0500,-32.31,81.69
714,367282.3,0.0500,-32.27,81.52
715,371535.2,0.0500,-32.24,81.29
716,375837.4,0.0500,-32.05,82.29
717,380189.4,0.0500,-32.08,80.65
718,384591.8,0.0500,-31.87,81.75
719,389045.1,0.0500,-31.84,81.47
720,393550.1,0.0500,-31.66,81.10
721,398107.2,0.0500,-31.51,79.81
722,402717.0,0.0500,-31.48,80.90
723,407380.3,0.0500,-31.26,80.42
724,412097.5,0.0500,-31.15,80.49
725,416869.4,0.0500,-31.19,80.10
726,421696.5,0.0500,-30.97,79.79
727,426579.5,0.0500,-30.88,79.75
728,431519.1,0.0500,-30.82,80.68
729,436515.8,0.0500,-30.61,80.50
730,441570.4,0.0500,-30.40,79.37
731,446683.6,0.0500,-30.34,79.75
732,451855.9,0.0500,-30.41,78.96
733,457088.2,0.0500,-30.22,78.93
734,462381.0,0.0500,-29.97,78.95
735,467735.1,0.0500,-29.85,80.43
736,473151.3,0.0500,-29.89,79.65
737,478630.1,0.0500,-29.66,78.36
738,484172.4,0.0500,-29.36,78.68
739,489778.8,0.0500,-29.28,78.96
740,495450.2,0.0500,-29.42,78.12
741,501187.2,0.0500,-29.26,78.29
742,506990.7,0.0500,-28.96,78.22
743,512861.4,0.0500,-28.80,76.76
744,518800.0,0.0500,-28.79,78.06
745,524807.5,0.0500,-28.87,76.39
746,530884.4,0.0500,-28.50,76.91
747,537031.8,0.0500,-28.42,78.64
748,543250.3,0.0500,-28.38,76.78
749,549540.9,0.0500,-28.23,77.50
750,555904.3,0.0500,-28.06,78.28
751,562341.3,0.0500,-27.72,76.07
752,568852.9,0.0500,-27.69,75.78
753,575439.9,0.0500,-27.74,75.98
754,582103.2,0.0500,-27.48,75.20
755,588843.7,0.0500,-27.38,76.95
756,595662.1,0.0500,-27.40,75.39
757,602559.6,0.0500,-27.27,74.80
758,609536.9,0.0500,-26.98,76.53
759,616595.0,0.0500,-26.74,74.77
760,623734.8,0.0500,-26.89,75.73
761,630957.3,0.0500,-26.53,76.07
762,638263.5,0.0500,-26.78,75.38
763,645654.2,0.0500,-26.22,75.47
764,653130.6,0.0500,-26.28,74.58
765,660693.4,0.0500,-26.08,72.72
766,668343.9,0.0500,-25.81,72.75
767,676083.0,0.0500,-25.77,72.65
768,683911.6,0.0500,-25.60,74.30
769,691831.0,0.0500,-25.42,74.07
770,699842.0,0.0500,-25.18,73.23
771,707945.8,0.0500,-25.24,73.09
772,716143.4,0.0500,-24.86,72.85
773,724436.0,0.0500,-24.86,72.45
774,732824.5,0.0500,-24.68,73.31
775,741310.2,0.0500,-24.50,72.34
776,749894.2,0.0500,-24.35,70.62
777,758577.6,0.0500,-24.21,70.98
778,767361.5,0.0500,-24.10,70.32
779,776247.1,0.0500,-23.81,70.21
780,785235.6,0.0500,-23.79,70.31
781,794328.2,0.0500,-23.54,69.91
782,803526.1,0.0500,-23.27,69.54
783,812830.5,0.0500,-23.20,68.74
784,822242.6,0.0500,-23.03,69.13
785,831763.8,0.0500,-22.87,68.41
786,841395.1,0.0500,-22.58,68.16
787,851138.0,0.0500,-22.57,68.40
788,860993.8,0.0500,-22.27,67.48
789,870963.6,0.0500,-22.14,67.59
790,881048.9,0.0500,-21.85,65.86
791,891250.9,0.0500,-21.65,66.47
792,901571.1,0.0500,-21.49,65.89
793,912010.8,0.0500,-21.29,63.80
794,922571.4,0.0500,-21.17,63.76
795,933254.3,0.0500,-20.78,64.34
796,944060.9,0.0500,-20.63,63.76
797,954992.6,0.0500,-20.64,62.13
798,966050.9,0.0500,-20.25,62.15
799,977237.2,0.0500,-20.03,60.89
800,988553.1,0.0500,-19.78,60.50
801,1000000.0,0.0500,-19.53,59.72
802,1011579.5,0.0500,-19.25,58.14
803,1023293.0,0.0500,-19.02,58.30
804,1035142.2,0.0500,-18.82,56.16
805,1047128.5,0.0500,-18.54,54.92
806,1059253.7,0.0500,-18.38,53.76
807,1071519.3,0.0500,-18.05,53.67
808,1083926.9,0.0500,-17.80,52.28
809,1096478.2,0.0500,-17.47,50.31
810,1109174.8,0.0500,-17.06,48.12
811,1122018.5,0.0500,-16.98,44.99
812,1135010.8,0.0500,-16.86,43.34
813,1148153.6,0.0500,-16.53,40.14
814,1161448.6,0.0500,-16.37,38.53
815,1174897.6,0.0500,-16.57,34.26
816,1188502.2,0.0500,-16.74,34.91
817,1202264.4,0.0500,-16.85,31.75
818,1216186.0,0.0500,-16.91,32.19
819,1230268.8,0.0500,-16.94,31.97
820,1244514.6,0.0500,-16.75,33.87
821,1258925.4,0.0500,-16.51,32.82
822,1273503.1,0.0500,-16.22,32.16
823,1288249.6,0.0500,-15.76,33.06
824,1303166.8,0.0500,-15.48,33.90
825,1318256.7,0.0500,-14.90,30.72
826,1333521.4,0.0500,-14.64,28.13
827,1348962.9,0.0500,-14.24,26.23
828,1364583.1,0.0500,-13.93,23.07
829,1380384.3,0.0500,-13.52,20.71
830,1396368.4,0.0500,-13.25,17.73
831,1412537.5,0.0500,-12.81,13.96
832,1428894.0,0.0500,-12.67,12.00
833,1445439.8,0.0500,-12.59,7.62
834,1462177.2,0.0500,-12.24,2.74
835,1479108.4,0.0500,-12.19,-0.44
836,1496235.7,0.0500,-12.11,-4.25
837,1513561.2,0.0500,-12.25,-6.03
838,1531087.5,0.0500,-12.14,-12.35
839,1548816.6,0.0500,-12.13,-15.47
840,1566751.1,0.0500,-12.19,-19.03
841,1584893.2,0.0500,-12.40,-23.60
842,1603245.4,0.0500,-12.55,-25.99
843,1621810.1,0.0500,-12.65,-30.13
844,1640589.8,0.0500,-12.92,-34.30
845,1659586.9,0.0500,-13.06,-36.74
846,1678804.0,0.0500,-13.38,-40.47
847,1698243.7,0.0500,-13.66,-43.15
848,1717908.4,0.0500,-13.88,-45.37
849,1737800.8,0.0500,-14.17,-47.84
850,1757923.6,0.0500,-14.57,-49.71
851,1778279.4,0.0500,-14.73,-50.98
852,1798870.9,0.0500,-15.04,-54.74
853,1819700.9,0.0500,-15.44,-56.23
854,1840772.0,0.0500,-15.62,-58.14
855,1862087.1,0.0500,-16.07,-60.53
856,1883649.1,0.0500,-16.22,-61.81
857,1905460.7,0.0500,-16.51,-62.69
858,1927524.9,0.0500,-16.90,-63.92
859,1949844.6,0.0500,-17.03,-66.07
860,1972422.7,0.0500,-17.40,-66.66
861,1995262.3,0.0500,-17.72,-67.99
862,2018366.4,0.0500,-17.92,-70.10
863,2041737.9,0.0500,-18.32,-70.79
864,2065380.2,0.0500,-18.52,-70.98
865,2089296.1,0.0500,-18.75,-72.98
866,2113489.0,0.0500,-19.03,-73.03
867,2137962.1,0.0500,-19.23,-74.12
868,2162718.5,0.0500,-19.46,-74.20
869,2187761.6,0.0500,-19.63,-75.46
870,2213094.7,0.0500,-19.99,-76.08
871,2238721.1,0.0500,-20.12,-77.58
872,2264644.3,0.0500,-20.36,-77.40
873,2290867.7,0.0500,-20.57,-78.00
874,2317394.6,0.0500,-20.49,-73.55
875,2344228.8,0.0500,-21.00,-79.30
876,2371373.7,0.0500,-21.29,-80.24
877,2398832.9,0.0500,-21.45,-79.47
878,2426610.1,0.0500,-21.58,-81.14
879,2454708.9,0.0500,-21.87,-83.11
880,2483133.1,0.0500,-22.14,-82.30
881,2511886.4,0.0500,-22.14,-83.44
882,2540972.7,0.0500,-22.59,-82.16
883,2570395.8,0.0500,-22.54,-82.98
884,2600159.6,0.0500,-22.77,-84.03
885,2630268.0,0.0500,-23.01,-85.06
886,2660725.1,0.0500,-23.18,-85.96
887,2691534.8,0.0500,-23.43,-85.02
888,2722701.3,0.0500,-23.43,-85.69
889,2754228.7,0.0500,-23.89,-86.75
890,2786121.2,0.0500,-23.94,-87.33
891,2818382.9,0.0500,-24.06,-83.11
892,2851018.3,0.0500,-23.75,-83.93
893,2884031.5,0.0500,-24.46,-87.73
894,2917427.0,0.0500,-24.53,-87.95
895,2951209.2,0.0500,-24.65,-88.72
896,2985382.6,0.0500,-24.84,-88.65
897,3019951.7,0.0500,-24.98,-89.12
898,3054921.1,0.0500,-25.10,-89.14
899,3090295.4,0.0500,-25.50,-92.21
900,3126079.4,0.0500,-25.47,-91.26
901,3162277.7,0.0500,-25.46,-91.20
902,3198895.1,0.0500,-25.75,-91.81
903,3235936.6,0.0500,-26.02,-90.87
904,3273406.9,0.0500,-26.05,-91.73
905,3311311.2,0.0500,-26.46,-94.44
906,3349654.4,0.0500,-26.45,-93.85
907,3388441.6,0.0500,-26.28,-92.78
908,3427677.9,0.0500,-27.75,-88.99
909,3467368.5,0.0500,-26.82,-93.80
910,3507518.7,0.0500,-26.96,-91.73
911,3548133.9,0.0500,-27.26,-95.46
912,3589219.3,0.0500,-26.10,-95.97
913,3630780.5,0.0500,-27.52,-93.68
914,3672823.0,0.0500,-27.42,-94.41
915,3715352.3,0.0500,-27.81,-94.13
916,3758374.0,0.0500,-27.80,-95.32
917,3801894.0,0.0500,-28.38,-97.90
918,3845917.8,0.0500,-28.00,-96.98
919,3890451.4,0.0500,-28.11,-96.90
920,3935500.8,0.0500,-28.36,-98.11
921,3981071.7,0.0500,-28.58,-97.66
922,4027170.3,0.0500,-28.71,-98.15
923,4073802.8,0.0500,-28.67,-98.26
924,4120975.2,0.0500,-28.54,-98.10
925,4168693.8,0.0500,-29.07,-99.36
926,4216965.0,0.0500,-29.15,-101.13
927,4265795.2,0.0500,-29.14,-99.44
928,4315190.8,0.0500,-29.33,-99.96
929,4365158.3,0.0500,-29.49,-100.18
930,4415704.5,0.0500,-29.52,-99.61
931,4466835.9,0.0500,-29.82,-99.06
932,4518559.4,0.0500,-30.03,-99.25
933,4570881.9,0.0500,-30.05,-99.72
934,4623810.2,0.0500,-29.77,-105.22
935,4677351.4,0.0500,-28.94,-89.96
936,4731512.6,0.0500,-30.25,-100.17
937,4786300.9,0.0500,-30.14,-100.02
938,4841723.7,0.0500,-30.60,-100.68
939,4897788.2,0.0500,-30.56,-101.76
940,4954501.9,0.0500,-31.42,-73.48
941,5011872.3,0.0500,-31.14,-102.67
942,5069907.1,0.0500,-31.05,-100.84
943,5128613.8,0.0500,-31.19,-102.35
944,5188000.4,0.0500,-31.40,-101.94
945,5248074.6,0.0500,-31.55,-104.84
946,5308844.4,0.0500,-31.72,-103.61
947,5370318.0,0.0500,-32.33,-103.07
948,5432503.3,0.0500,-34.06,-81.18
949,5495408.7,0.0500,-32.03,-102.66
950,5559042.6,0.0500,-32.09,-100.35
951,5623413.3,0.0500,-31.82,-104.57
952,5688529.3,0.0500,-32.37,-103.12
953,5754399.4,0.0500,-32.09,-104.97
954,5821032.2,0.0500,-32.47,-101.51
955,5888436.6,0.0500,-32.01,-101.44
956,5956621.4,0.0500,-32.47,-104.17
957,6025595.9,0.0500,-32.97,-103.55
958,6095369.0,0.0500,-32.66,-107.28
959,6165950.0,0.0500,-32.46,-105.39
960,6237348.4,0.0500,-32.66,-106.82
961,6309573.4,0.0500,-32.77,-106.09
962,6382634.9,0.0500,-32.85,-107.57
963,6456542.3,0.0500,-33.29,-104.15
964,6531305.5,0.0500,-33.90,-123.64
965,6606934.5,0.0500,-32.99,-105.51
966,6683439.2,0.0500,-32.92,-109.64
967,6760829.8,0.0500,-33.73,-109.24
968,6839116.5,0.0500,-34.34,-109.84
969,6918309.7,0.0500,-33.87,-107.19
970,6998420.0,0.0500,-33.75,-110.50
971,7079457.8,0.0500,-34.10,-110.37
972,7161434.1,0.0500,-33.80,-109.04
973,7244359.6,0.0500,-34.63,-106.76
974,7328245.3,0.0500,-34.04,-110.40
975,7413102.4,0.0500,-33.01,-107.50
976,7498942.1,0.0500,-32.25,-117.45
977,7585775.8,0.0500,-34.87,-113.16
978,7673614.9,0.0500,-34.40,-116.06
979,7762471.2,0.0500,-34.90,-110.65
980,7852356.3,0.0500,-35.01,-113.45
981,7943282.3,0.0500,-35.61,-113.87
982,8035261.2,0.0500,-35.43,-118.77
983,8128305.2,0.0500,-35.60,-116.69
984,8222426.5,0.0500,-35.73,-114.30
985,8317637.7,0.0500,-35.31,-112.78
986,8413951.4,0.0500,-38.12,-146.03
987,8511380.4,0.0500,-35.57,-115.05
988,8609937.5,0.0500,-37.26,-127.46
989,8709635.9,0.0500,-36.60,-127.93
990,8810488.7,0.0500,-35.41,-117.56
991,8912509.4,0.0500,-36.28,-120.36
992,9015711.4,0.0500,-35.66,-117.99
993,9120108.4,0.0500,-34.59,-133.68
994,9225714.3,0.0500,-35.80,-117.31
995,9332543.0,0.0500,-36.18,-116.72
996,9440608.8,0.0500,-36.30,-115.72
997,9549925.9,0.0500,-34.84,-123.03
998,9660508.8,0.0500,-35.92,-121.29
999,9772372.2,0.0500,-36.49,-119.89
1000,9885530.9,0.0500,-36.41,-120.67
1001,10000000.0,0.0500,-36.76,-116.70
