#, Frequency (Hz), Amplitude (Vpp), Gain (dB), Phase (°)
1,100.0,0.0500,-61.27,0.30
2,101.2,0.0500,-61.93,-5.34
3,102.3,0.0500,-61.93,2.21
4,103.5,0.0500,-61.17,4.18
5,104.7,0.0500,-61.07,5.22
6,105.9,0.0500,-62.11,3.31
7,107.2,0.0500,-61.29,0.86
8,108.4,0.0500,-61.05,8.86
9,109.6,0.0500,-62.43,-0.85
10,110.9,0.0500,-61.71,7.55
11,112.2,0.0500,-61.48,5.94
12,113.5,0.0500,-61.82,0.73
13,114.8,0.0500,-61.17,4.80
14,116.1,0.0500,-61.49,8.38
15,117.5,0.0500,-61.45,1.85
16,118.9,0.0500,-61.88,3.01
17,120.2,0.0500,-61.70,3.76
18,121.6,0.0500,-62.01,2.22
19,123.0,0.0500,-60.10,2.12
20,124.5,0.0500,-61.56,1.21
21,125.9,0.0500,-60.60,4.81
22,127.4,0.0500,-62.17,6.57
23,128.8,0.0500,-60.55,3.26
24,130.3,0.0500,-61.23,3.16
25,131.8,0.0500,-61.47,2.07
26,133.4,0.0500,-61.98,6.42
27,134.9,0.0500,-62.10,6.09
28,136.5,0.0500,-60.82,4.01
29,138.0,0.0500,-61.88,6.22
30,139.6,0.0500,-61.27,4.15
31,141.3,0.0500,-61.59,8.33
32,142.9,0.0500,-61.57,6.68
33,144.5,0.0500,-61.54,-0.37
34,146.2,0.0500,-61.44,5.46
35,147.9,0.0500,-61.46,1.60
36,149.6,0.0500,-60.81,4.18
37,151.4,0.0500,-61.04,6.22
38,153.1,0.0500,-61.28,1.64
39,154.9,0.0500,-61.76,2.31
40,156.7,0.0500,-61.42,6.28
41,158.5,0.0500,-61.96,3.08
42,160.3,0.0500,-61.79,5.40
43,162.2,0.0500,-60.87,6.79
44,164.1,0.0500,-61.45,3.57
45,166.0,0.0500,-61.21,4.44
46,167.9,0.0500,-61.33,7.47
47,169.8,0.0500,-61.90,3.87
48,171.8,0.0500,-62.19,6.01
49,173.8,0.0500,-61.59,7.78
50,175.8,0.0500,-62.31,6.33
51,177.8,0.0500,-61.71,3.89
52,179.9,0.0500,-60.97,0.48
53,182.0,0.0500,-61.90,1.70
54,184.1,0.0500,-62.24,8.07
55,186.2,0.0500,-61.56,1.72
56,188.4,0.0500,-61.42,0.67
57,190.5,0.0500,-61.80,-1.76
58,192.8,0.0500,-61.54,3.74
59,195.0,0.0500,-60.78,3.96
60,197.2,0.0500,-61.38,5.78
61,199.5,0.0500,-60.62,3.78
62,201.8,0.0500,-61.56,1.69
63,204.2,0.0500,-61.34,-3.43
64,206.5,0.0500,-60.90,5.80
65,208.9,0.0500,-61.22,1.12
66,211.3,0.0500,-62.48,2.22
67,213.8,0.0500,-61.63,4.75
68,216.3,0.0500,-61.27,0.98
69,218.8,0.0500,-61.08,7.02
70,221.3,0.0500,-61.33,8.84
71,223.9,0.0500,-61.58,1.12
72,226.5,0.0500,-61.46,3.19
73,229.1,0.0500,-60.58,2.83
74,231.7,0.0500,-61.42,3.90
75,234.4,0.0500,-61.63,10.49
76,237.1,0.0500,-61.04,5.93
77,239.9,0.0500,-61.54,13.69
78,242.7,0.0500,-61.24,4.90
79,245.5,0.0500,-61.05,3.00
80,248.3,0.0500,-61.48,8.30
81,251.2,0.0500,-61.03,3.97
82,254.1,0.0500,-60.37,10.44
83,257.0,0.0500,-61.64,5.12
84,260.0,0.0500,-61.80,8.51
85,263.0,0.0500,-61.16,4.92
86,266.1,0.0500,-61.95,10.44
87,269.2,0.0500,-61.20,3.81
88,272.3,0.0500,-61.88,7.95
89,275.4,0.0500,-61.07,10.23
90,278.6,0.0500,-61.86,7.71
91,281.8,0.0500,-60.80,3.27
92,285.1,0.0500,-61.79,11.52
93,288.4,0.0500,-61.93,8.59
94,291.7,0.0500,-61.05,8.79
95,295.1,0.0500,-61.33,11.64
96,298.5,0.0500,-61.02,5.61
97,302.0,0.0500,-61.09,8.74
98,305.5,0.0500,-60.88,8.24
99,309.0,0.0500,-61.30,4.49
100,312.6,0.0500,-62.34,5.64
101,316.2,0.0500,-60.92,6.22
102,319.9,0.0500,-61.58,8.73
103,323.6,0.0500,-61.05,9.92
104,327.3,0.0500,-61.24,10.01
105,331.1,0.0500,-62.00,5.83
106,335.0,0.0500,-61.74,7.59
107,338.8,0.0500,-61.91,9.48
108,342.8,0.0500,-61.33,8.12
109,346.7,0.0500,-62.22,7.89
110,350.8,0.0500,-61.47,12.79
111,354.8,0.0500,-60.74,6.47
112,358.9,0.0500,-60.68,6.65
113,363.1,0.0500,-61.60,9.85
114,367.3,0.0500,-60.69,6.89
115,371.5,0.0500,-60.61,12.46
116,375.8,0.0500,-61.89,5.81
117,380.2,0.0500,-61.27,10.03
118,384.6,0.0500,-61.12,10.20
119,389.0,0.0500,-60.64,10.04
120,393.6,0.0500,-61.26,10.53
121,398.1,0.0500,-61.04,8.15
122,402.7,0.0500,-61.05,10.91
123,407.4,0.0500,-61.72,10.27
124,412.1,0.0500,-61.32,11.40
125,416.9,0.0500,-61.92,12.20
126,421.7,0.0500,-61.13,14.23
127,426.6,0.0500,-61.04,8.79
128,431.5,0.0500,-61.14,13.25
129,436.5,0.0500,-61.20,12.54
130,441.6,0.0500,-60.84,10.35
131,446.7,0.0500,-61.40,11.53
132,451.9,0.0500,-60.95,7.69
133,457.1,0.0500,-60.93,6.11
134,462.4,0.0500,-61.44,12.46
135,467.7,0.0500,-60.68,8.69
136,473.2,0.0500,-61.14,14.07
137,478.6,0.0500,-61.34,12.20
138,484.2,0.0500,-61.03,15.80
139,489.8,0.0500,-61.29,12.00
140,495.5,0.0500,-60.65,11.84
141,501.2,0.0500,-60.67,17.13
142,507.0,0.0500,-60.90,15.21
143,512.9,0.0500,-60.49,9.71
144,518.8,0.0500,-61.31,13.39
145,524.8,0.0500,-61.42,13.84
146,530.9,0.0500,-60.68,13.17
147,537.0,0.0500,-60.44,14.06
148,543.3,0.0500,-60.98,10.24
149,549.5,0.0500,-60.83,13.51
150,555.9,0.0500,-61.27,16.08
151,562.3,0.0500,-60.97,11.62
152,568.9,0.0500,-60.86,15.02
153,575.4,0.0500,-61.43,12.27
154,582.1,0.0500,-61.44,12.28
155,588.8,0.0500,-61.79,9.73
156,595.7,0.0500,-61.08,16.44
157,602.6,0.0500,-61.27,13.29
158,609.5,0.0500,-61.00,10.42
159,616.6,0.0500,-60.72,13.93
160,623.7,0.0500,-61.53,15.73
161,631.0,0.0500,-61.10,10.37
162,638.3,0.0500,-61.19,18.41
163,645.7,0.0500,-60.72,18.49
164,653.1,0.0500,-61.73,17.42
165,660.7,0.0500,-60.84,19.33
166,668.3,0.0500,-60.84,19.74
167,676.1,0.0500,-60.71,13.79
168,683.9,0.0500,-61.10,15.08
169,691.8,0.0500,-61.52,13.32
170,699.8,0.0500,-61.10,16.02
171,707.9,0.0500,-60.79,15.93
172,716.1,0.0500,-61.13,15.97
173,724.4,0.0500,-61.20,15.48
174,732.8,0.0500,-60.51,21.76
175,741.3,0.0500,-60.78,22.01
176,749.9,0.0500,-60.90,21.04
177,758.6,0.0500,-60.61,16.37
178,767.4,0.0500,-61.85,18.49
179,776.2,0.0500,-60.25,17.24
180,785.2,0.0500,-60.50,17.86
181,794.3,0.0500,-60.35,17.01
182,803.5,0.0500,-60.50,18.61
183,812.8,0.0500,-61.15,19.72
184,822.2,0.0500,-60.31,20.07
185,831.8,0.0500,-60.90,17.90
186,841.4,0.0500,-61.04,19.76
187,851.1,0.0500,-60.03,18.93
188,861.0,0.0500,-60.48,20.40
189,871.0,0.0500,-60.61,19.43
190,881.0,0.0500,-60.93,21.39
191,891.3,0.0500,-60.44,19.88
192,901.6,0.0500,-60.87,22.23
193,912.0,0.0500,-60.44,22.62
194,922.6,0.0500,-60.31,27.04
195,933.3,0.0500,-60.83,25.06
196,944.1,0.0500,-61.34,21.03
197,955.0,0.0500,-60.85,21.66
198,966.1,0.0500,-60.16,20.84
199,977.2,0.0500,-59.93,22.73
200,988.6,0.0500,-60.55,25.26
201,1000.0,0.0500,-60.94,21.80
202,1011.6,0.0500,-60.68,21.99
203,1023.3,0.0500,-59.90,25.83
204,1035.1,0.0500,-61.35,23.87
205,1047.1,0.0500,-60.20,25.00
206,1059.3,0.0500,-60.80,28.31
207,1071.5,0.0500,-60.76,23.18
208,1083.9,0.0500,-61.20,23.56
209,1096.5,0.0500,-60.11,27.03
210,1109.2,0.0500,-60.46,24.44
211,1122.0,0.0500,-60.31,24.70
212,1135.0,0.0500,-60.36,23.97
213,1148.2,0.0500,-60.82,29.36
214,1161.4,0.0500,-60.38,25.30
215,1174.9,0.0500,-60.40,29.54
216,1188.5,0.0500,-60.00,23.24
217,1202.3,0.0500,-60.30,24.83
218,1216.2,0.0500,-60.56,25.43
219,1230.3,0.0500,-60.21,31.29
220,1244.5,0.0500,-59.85,28.56
221,1258.9,0.0500,-60.67,25.88
222,1273.5,0.0500,-60.37,30.32
223,1288.2,0.0500,-60.54,26.41
224,1303.2,0.0500,-60.14,26.48
225,1318.3,0.0500,-59.77,31.15
226,1333.5,0.0500,-59.74,33.89
227,1349.0,0.0500,-59.97,30.98
228,1364.6,0.0500,-59.69,29.35
229,1380.4,0.0500,-59.94,31.61
230,1396.4,0.0500,-60.27,29.71
231,1412.5,0.0500,-59.34,31.59
232,1428.9,0.0500,-59.96,32.32
233,1445.4,0.0500,-59.54,36.32
234,1462.2,0.0500,-60.72,32.72
235,1479.1,0.0500,-59.30,33.76
236,1496.2,0.0500,-60.13,31.86
237,1513.6,0.0500,-60.49,31.75
238,1531.1,0.0500,-59.38,35.84
239,1548.8,0.0500,-60.01,32.49
240,1566.8,0.0500,-59.63,32.66
241,1584.9,0.0500,-59.99,31.82
242,1603.2,0.0500,-59.55,31.45
243,1621.8,0.0500,-59.62,38.45
244,1640.6,0.0500,-58.88,35.30
245,1659.6,0.0500,-59.96,34.05
246,1678.8,0.0500,-59.70,36.24
247,1698.2,0.0500,-58.67,35.85
248,1717.9,0.0500,-59.49,35.39
249,1737.8,0.0500,-59.64,33.42
250,1757.9,0.0500,-59.35,37.92
251,1778.3,0.0500,-59.29,35.66
252,1798.9,0.0500,-59.29,36.91
253,1819.7,0.0500,-58.87,38.23
254,1840.8,0.0500,-59.19,38.06
255,1862.1,0.0500,-58.62,38.21
256,1883.6,0.0500,-59.51,38.39
257,1905.5,0.0500,-59.01,36.91
258,1927.5,0.0500,-59.31,41.36
259,1949.8,0.0500,-59.21,36.31
260,1972.4,0.0500,-59.13,39.25
261,1995.3,0.0500,-58.97,37.98
262,2018.4,0.0500,-59.22,37.90
263,2041.7,0.0500,-59.18,41.21
264,2065.4,0.0500,-59.03,41.45
265,2089.3,0.0500,-58.98,38.20
266,2113.5,0.0500,-59.06,41.50
267,2138.0,0.0500,-58.30,42.12
268,2162.7,0.0500,-58.87,41.48
269,2187.8,0.0500,-58.40,43.80
270,2213.1,0.0500,-58.38,44.76
271,2238.7,0.0500,-58.92,46.98
272,2264.6,0.0500,-58.29,46.33
273,2290.9,0.0500,-58.44,45.00
274,2317.4,0.0500,-57.78,44.19
275,2344.2,0.0500,-58.45,45.90
276,2371.4,0.0500,-58.05,46.46
277,2398.8,0.0500,-57.83,43.28
278,2426.6,0.0500,-58.12,44.25
279,2454.7,0.0500,-57.98,46.58
280,2483.1,0.0500,-58.35,47.01
281,2511.9,0.0500,-57.48,45.21
282,2541.0,0.0500,-57.68,44.24
283,2570.4,0.0500,-58.07,48.65
284,2600.2,0.0500,-57.69,48.90
285,2630.3,0.0500,-57.76,48.86
286,2660.7,0.0500,-57.26,47.28
287,2691.5,0.0500,-57.71,48.44
288,2722.7,0.0500,-57.51,45.38
289,2754.2,0.0500,-57.64,49.75
290,2786.1,0.0500,-57.22,48.60
291,2818.4,0.0500,-57.44,50.46
292,2851.0,0.0500,-57.23,49.80
293,2884.0,0.0500,-57.19,52.11
294,2917.4,0.0500,-57.25,53.00
295,2951.2,0.0500,-57.19,50.92
296,2985.4,0.0500,-56.75,49.70
297,3020.0,0.0500,-56.97,54.09
298,3054.9,0.0500,-57.16,51.49
299,3090.3,0.0500,-56.49,53.23
300,3126.1,0.0500,-56.63,52.67
301,3162.3,0.0500,-56.83,52.94
302,3198.9,0.0500,-56.54,54.00
303,3235.9,0.0500,-56.85,52.81
304,3273.4,0.0500,-56.67,54.28
305,3311.3,0.0500,-56.62,54.89
306,3349.7,0.0500,-56.31,55.22
307,3388.4,0.0500,-56.74,52.87
308,3427.7,0.0500,-56.54,55.48
309,3467.4,0.0500,-56.37,57.52
310,3507.5,0.0500,-56.39,53.87
311,3548.1,0.0500,-55.95,57.82
312,3589.2,0.0500,-56.09,53.80
313,3630.8,0.0500,-55.93,56.21
314,3672.8,0.0500,-55.77,58.97
315,3715.4,0.0500,-55.68,58.31
316,3758.4,0.0500,-55.85,56.57
317,3801.9,0.0500,-55.33,57.81
318,3845.9,0.0500,-55.98,58.79
319,3890.5,0.0500,-55.30,56.81
320,3935.5,0.0500,-55.44,59.27
321,3981.1,0.0500,-55.66,59.66
322,4027.2,0.0500,-55.80,59.62
323,4073.8,0.0500,-55.20,59.33
324,4121.0,0.0500,-55.13,59.33
325,4168.7,0.0500,-55.25,59.24
326,4217.0,0.0500,-54.83,61.81
327,4265.8,0.0500,-54.92,60.27
328,4315.2,0.0500,-54.63,60.92
329,4365.2,0.0500,-54.60,59.76
330,4415.7,0.0500,-54.83,61.66
331,4466.8,0.0500,-54.57,62.18
332,4518.6,0.0500,-54.41,62.75
333,4570.9,0.0500,-54.47,61.19
334,4623.8,0.0500,-54.57,63.61
335,4677.4,0.0500,-54.10,64.14
336,4731.5,0.0500,-54.45,64.19
337,4786.3,0.0500,-54.41,62.31
338,4841.7,0.0500,-54.24,63.07
339,4897.8,0.0500,-54.06,64.24
340,4954.5,0.0500,-53.92,62.94
341,5011.9,0.0500,-53.82,65.25
342,5069.9,0.0500,-53.69,64.86
343,5128.6,0.0500,-53.65,64.85
344,5188.0,0.0500,-53.49,66.58
345,5248.1,0.0500,-53.32,64.64
346,5308.8,0.0500,-53.32,64.88
347,5370.3,0.0500,-53.49,66.07
348,5432.5,0.0500,-53.34,65.86
349,5495.4,0.0500,-53.10,67.28
350,5559.0,0.0500,-52.98,67.15
351,5623.4,0.0500,-52.91,66.38
352,5688.5,0.0500,-52.96,67.49
353,5754.4,0.0500,-52.78,68.26
354,5821.0,0.0500,-52.94,68.52
355,5888.4,0.0500,-52.66,68.09
356,5956.6,0.0500,-52.75,66.50
357,6025.6,0.0500,-52.72,67.86
358,6095.4,0.0500,-52.36,69.45
359,6166.0,0.0500,-52.31,68.54
360,6237.3,0.0500,-52.25,70.02
361,6309.6,0.0500,-52.04,69.01
362,6382.6,0.0500,-52.08,69.28
363,6456.5,0.0500,-51.86,69.36
364,6531.3,0.0500,-51.89,70.21
365,6606.9,0.0500,-51.85,70.93
366,6683.4,0.0500,-51.63,69.47
367,6760.8,0.0500,-51.26,69.81
368,6839.1,0.0500,-51.79,70.65
369,6918.3,0.0500,-51.44,70.92
370,6998.4,0.0500,-51.34,71.40
371,7079.5,0.0500,-51.32,71.06
372,7161.4,0.0500,-51.26,71.95
373,7244.4,0.0500,-51.14,72.12
374,7328.2,0.0500,-50.88,72.37
375,7413.1,0.0500,-50.81,73.09
376,7498.9,0.0500,-50.82,73.01
377,7585.8,0.0500,-50.63,72.24
378,7673.6,0.0500,-50.52,72.88
379,7762.5,0.0500,-50.59,73.16
380,7852.4,0.0500,-50.46,72.56
381,7943.3,0.0500,-50.43,72.86
382,8035.3,0.0500,-50.34,72.72
383,8128.3,0.0500,-50.15,74.04
384,8222.4,0.0500,-50.07,73.20
385,8317.6,0.0500,-50.05,73.29
386,8414.0,0.0500,-50.08,74.31
387,8511.4,0.0500,-49.68,73.57
388,8609.9,0.0500,-49.78,75.16
389,8709.6,0.0500,-49.67,74.86
390,8810.5,0.0500,-49.52,74.64
391,8912.5,0.0500,-49.33,74.70
392,9015.7,0.0500,-49.40,74.57
393,9120.1,0.0500,-49.27,75.38
394,9225.7,0.0500,-49.24,74.98
395,9332.5,0.0500,-49.20,75.05
396,9440.6,0.0500,-49.01,74.96
397,9549.9,0.0500,-48.86,75.44
398,9660.5,0.0500,-48.84,76.46
399,9772.4,0.0500,-48.74,76.51
400,9885.5,0.0500,-48.62,76.26
401,10000.0,0.0500,-48.54,76.80
402,10115.8,0.0500,-48.46,76.87
403,10232.9,0.0500,-48.32,77.23
404,10351.4,0.0500,-48.25,76.61
405,10471.3,0.0500,-47.98,76.30
406,10592.5,0.0500,-48.15,76.95
407,10715.2,0.0500,-47.89,77.52
408,10839.3,0.0500,-47.83,77.11
409,10964.8,0.0500,-47.77,77.80
410,11091.7,0.0500,-47.59,77.32
411,11220.2,0.0500,-47.50,77.40
412,11350.1,0.0500,-47.36,77.52
413,11481.5,0.0500,-47.30,77.63
414,11614.5,0.0500,-47.30,78.07
415,11749.0,0.0500,-47.28,78.25
416,11885.0,0.0500,-46.95,78.42
417,12022.6,0.0500,-46.97,77.63
418,12161.9,0.0500,-46.68,79.40
419,12302.7,0.0500,-46.85,78.93
420,12445.1,0.0500,-46.66,79.29
421,12589.3,0.0500,-46.56,78.56
422,12735.0,0.0500,-46.43,78.70
423,12882.5,0.0500,-46.31,79.35
424,13031.7,0.0500,-46.29,78.78
425,13182.6,0.0500,-46.21,79.55
426,13335.2,0.0500,-46.05,79.32
427,13489.6,0.0500,-45.98,79.12
428,13645.8,0.0500,-45.92,79.92
429,13803.8,0.0500,-45.97,79.92
430,13963.7,0.0500,-45.67,79.82
431,14125.4,0.0500,-45.65,80.19
432,14288.9,0.0500,-45.40,80.44
433,14454.4,0.0500,-45.39,80.55
434,14621.8,0.0500,-45.30,80.77
435,14791.1,0.0500,-45.18,79.78
436,14962.4,0.0500,-45.09,80.22
437,15135.6,0.0500,-45.08,80.16
438,15310.9,0.0500,-44.99,80.38
439,15488.2,0.0500,-44.86,80.49
440,15667.5,0.0500,-44.79,80.66
441,15848.9,0.0500,-44.72,80.82
442,16032.5,0.0500,-44.50,81.55
443,16218.1,0.0500,-44.43,80.60
444,16405.9,0.0500,-44.40,81.96
445,16595.9,0.0500,-44.22,81.27
446,16788.0,0.0500,-44.24,81.11
447,16982.4,0.0500,-44.04,81.70
448,17179.1,0.0500,-43.93,81.69
449,17378.0,0.0500,-43.85,81.65
450,17579.2,0.0500,-43.77,81.73
451,17782.8,0.0500,-43.58,81.07
452,17988.7,0.0500,-43.49,82.41
453,18197.0,0.0500,-43.41,81.64
454,18407.7,0.0500,-43.29,82.02
455,18620.9,0.0500,-43.19,81.34
456,18836.5,0.0500,-43.20,81.75
457,19054.6,0.0500,-43.11,82.31
458,19275.2,0.0500,-42.97,81.89
459,19498.4,0.0500,-42.90,81.92
460,19724.2,0.0500,-42.74,82.90
461,19952.6,0.0500,-42.63,82.15
462,20183.7,0.0500,-42.56,82.49
463,20417.4,0.0500,-42.38,83.18
464,20653.8,0.0500,-42.37,82.69
465,20893.0,0.0500,-42.28,82.46
466,21134.9,0.0500,-42.14,83.03
467,21379.6,0.0500,-42.01,82.62
468,21627.2,0.0500,-41.96,83.37
469,21877.6,0.0500,-41.84,83.04
470,22130.9,0.0500,-41.71,83.14
471,22387.2,0.0500,-41.61,83.26
472,22646.4,0.0500,-41.60,82.91
473,22908.7,0.0500,-41.43,83.53
474,23173.9,0.0500,-41.39,83.24
475,23442.3,0.0500,-41.30,83.44
476,23713.7,0.0500,-41.24,83.30
477,23988.3,0.0500,-41.07,83.46
478,24266.1,0.0500,-40.96,83.97
479,24547.1,0.0500,-40.85,83.51
480,24831.3,0.0500,-40.74,83.54
481,25118.9,0.0500,-40.64,84.08
482,25409.7,0.0500,-40.51,83.78
483,25704.0,0.0500,-40.41,83.79
484,26001.6,0.0500,-40.36,83.97
485,26302.7,0.0500,-40.33,83.87
486,26607.3,0.0500,-40.12,84.30
487,26915.3,0.0500,-40.01,83.62
488,27227.0,0.0500,-39.93,83.65
489,27542.3,0.0500,-39.81,83.82
490,27861.2,0.0500,-39.68,84.64
491,28183.8,0.0500,-39.55,83.97
492,28510.2,0.0500,-39.51,84.86
493,28840.3,0.0500,-39.39,83.93
494,29174.3,0.0500,-39.36,84.44
495,29512.1,0.0500,-39.34,84.44
496,29853.8,0.0500,-39.11,84.39
497,30199.5,0.0500,-39.00,84.05
498,30549.2,0.0500,-38.91,83.96
499,30903.0,0.0500,-38.85,84.85
500,31260.8,0.0500,-38.74,84.58
501,31622.8,0.0500,-38.69,84.54
502,31989.0,0.0500,-38.53,84.17
503,32359.4,0.0500,-38.46,84.41
504,32734.1,0.0500,-38.34,84.73
505,33113.1,0.0500,-38.25,84.12
506,33496.5,0.0500,-38.11,84.75
507,33884.4,0.0500,-38.07,85.02
508,34276.8,0.0500,-37.89,84.86
509,34673.7,0.0500,-37.81,84.87
510,35075.2,0.0500,-37.94,84.90
511,35481.3,0.0500,-37.70,84.50
512,35892.2,0.0500,-37.64,84.82
513,36307.8,0.0500,-37.41,84.42
514,36728.2,0.0500,-37.32,85.07
515,37153.5,0.0500,-37.11,85.52
516,37583.7,0.0500,-37.05,85.04
517,38018.9,0.0500,-37.02,85.08
518,38459.2,0.0500,-36.85,85.63
519,38904.5,0.0500,-36.74,85.29
520,39355.0,0.0500,-36.74,85.76
521,39810.7,0.0500,-36.63,85.62
522,40271.7,0.0500,-36.56,84.95
523,40738.0,0.0500,-36.44,85.58
524,41209.8,0.0500,-36.24,85.22
525,41686.9,0.0500,-36.21,85.47
526,42169.7,0.0500,-36.07,85.46
527,42658.0,0.0500,-35.92,85.38
528,43151.9,0.0500,-35.75,85.61
529,43651.6,0.0500,-35.69,85.64
530,44157.0,0.0500,-35.69,84.59
531,44668.4,0.0500,-35.55,85.02
532,45185.6,0.0500,-35.51,85.10
533,45708.8,0.0500,-35.35,85.54
534,46238.1,0.0500,-35.34,85.21
535,46773.5,0.0500,-35.23,85.45
536,47315.1,0.0500,-35.06,85.21
537,47863.0,0.0500,-34.95,85.50
538,48417.2,0.0500,-34.83,85.77
539,48977.9,0.0500,-34.81,85.75
540,49545.0,0.0500,-34.60,85.68
541,50118.7,0.0500,-34.46,85.35
542,50699.1,0.0500,-34.44,85.15
543,51286.1,0.0500,-34.24,85.11
544,51880.0,0.0500,-34.21,85.71
545,52480.7,0.0500,-34.12,85.21
546,53088.4,0.0500,-34.00,85.20
547,53703.2,0.0500,-33.88,85.34
548,54325.0,0.0500,-33.76,85.07
549,54954.1,0.0500,-33.69,85.73
550,55590.4,0.0500,-33.65,85.40
551,56234.1,0.0500,-33.54,84.96
552,56885.3,0.0500,-33.36,85.51
553,57544.0,0.0500,-33.26,84.93
554,58210.3,0.0500,-33.21,85.28
555,58884.4,0.0500,-33.07,85.25
556,59566.2,0.0500,-32.99,85.03
557,60256.0,0.0500,-32.88,85.15
558,60953.7,0.0500,-32.78,85.03
559,61659.5,0.0500,-32.72,84.97
560,62373.5,0.0500,-32.59,85.33
561,63095.7,0.0500,-32.49,85.18
562,63826.3,0.0500,-32.29,85.16
563,64565.4,0.0500,-32.29,85.09
564,65313.1,0.0500,-32.18,85.29
565,66069.3,0.0500,-32.03,84.86
566,66834.4,0.0500,-32.00,85.17
567,67608.3,0.0500,-31.81,85.51
568,68391.2,0.0500,-31.79,85.13
569,69183.1,0.0500,-31.67,85.49
570,69984.2,0.0500,-31.55,85.09
571,70794.6,0.0500,-31.46,84.78
572,71614.3,0.0500,-31.38,85.08
573,72443.6,0.0500,-31.24,85.04
574,73282.5,0.0500,-31.17,85.15
575,74131.0,0.0500,-31.07,85.06
576,74989.4,0.0500,-30.95,85.23
577,75857.8,0.0500,-30.83,84.86
578,76736.1,0.0500,-30.74,85.02
579,77624.7,0.0500,-30.64,84.99
580,78523.6,0.0500,-30.54,85.04
581,79432.8,0.0500,-30.41,84.83
582,80352.6,0.0500,-30.36,84.86
583,81283.1,0.0500,-30.23,85.10
584,82224.3,0.0500,-30.13,84.76
585,83176.4,0.0500,-30.01,85.13
586,84139.5,0.0500,-29.94,84.91
587,85113.8,0.0500,-29.81,85.00
588,86099.4,0.0500,-29.72,84.92
589,87096.4,0.0500,-29.61,84.79
590,88104.9,0.0500,-29.51,84.87
591,89125.1,0.0500,-29.43,84.61
592,90157.1,0.0500,-29.29,84.91
593,91201.1,0.0500,-29.17,84.76
594,92257.1,0.0500,-29.09,84.80
595,93325.4,0.0500,-29.03,84.70
596,94406.1,0.0500,-28.91,84.68
597,95499.3,0.0500,-28.75,84.44
598,96605.1,0.0500,-28.66,84.61
599,97723.7,0.0500,-28.59,84.64
600,98855.3,0.0500,-28.46,84.53
601,100000.0,0.0500,-28.35,84.46
602,101157.9,0.0500,-28.26,84.41
603,102329.3,0.0500,-28.11,84.40
604,103514.2,0.0500,-28.02,84.28
605,104712.9,0.0500,-27.93,84.51
606,105925.4,0.0500,-27.84,84.50
607,107151.9,0.0500,-27.73,84.25
608,108392.7,0.0500,-27.61,84.36
609,109647.8,0.0500,-27.56,83.94
610,110917.5,0.0500,-27.40,84.18
611,112201.8,0.0500,-27.27,83.98
612,113501.1,0.0500,-27.15,83.98
613,114815.4,0.0500,-27.06,84.19
614,116144.9,0.0500,-26.99,84.13
615,117489.8,0.0500,-26.85,83.90
616,118850.2,0.0500,-26.76,83.82
617,120226.4,0.0500,-26.65,84.05
618,121618.6,0.0500,-26.51,83.77
619,123026.9,0.0500,-26.46,83.77
620,124451.5,0.0500,-26.37,83.70
621,125892.5,0.0500,-26.20,83.77
622,127350.3,0.0500,-26.10,83.54
623,128825.0,0.0500,-26.00,83.40
624,130316.7,0.0500,-25.83,83.72
625,131825.7,0.0500,-25.79,83.42
626,133352.1,0.0500,-25.64,83.25
627,134896.3,0.0500,-25.57,83.55
628,136458.3,0.0500,-25.43,83.52
629,138038.4,0.0500,-25.33,83.33
630,139636.8,0.0500,-25.21,83.33
631,141253.8,0.0500,-25.09,83.25
632,142889.4,0.0500,-25.01,83.22
633,144544.0,0.0500,-24.89,83.19
634,146217.7,0.0500,-24.78,83.28
635,147910.8,0.0500,-24.68,82.97
636,149623.6,0.0500,-24.46,82.82
637,151356.1,0.0500,-24.42,82.95
638,153108.7,0.0500,-24.30,82.80
639,154881.7,0.0500,-24.20,82.50
640,156675.1,0.0500,-24.12,82.48
641,158489.3,0.0500,-23.94,82.17
642,160324.5,0.0500,-23.85,82.26
643,162181.0,0.0500,-23.70,82.08
644,164059.0,0.0500,-23.63,82.30
645,165958.7,0.0500,-23.52,82.29
646,167880.4,0.0500,-23.38,82.18
647,169824.4,0.0500,-23.21,81.82
648,171790.8,0.0500,-23.16,81.82
649,173780.1,0.0500,-23.07,81.85
650,175792.4,0.0500,-22.90,81.58
651,177827.9,0.0500,-22.72,82.35
652,179887.1,0.0500,-22.71,81.44
653,181970.1,0.0500,-22.59,81.51
654,184077.2,0.0500,-22.37,80.95
655,186208.7,0.0500,-22.27,81.34
656,188364.9,0.0500,-22.20,81.32
657,190546.1,0.0500,-22.14,80.77
658,192752.5,0.0500,-21.93,80.97
659,194984.5,0.0500,-21.71,80.83
660,197242.3,0.0500,-21.75,80.65
661,199526.2,0.0500,-21.59,80.73
662,201836.6,0.0500,-21.44,80.50
663,204173.8,0.0500,-21.42,79.67
664,206538.0,0.0500,-21.21,80.06
665,208929.6,0.0500,-21.10,80.18
666,211348.9,0.0500,-20.88,80.63
667,213796.2,0.0500,-20.88,79.42
668,216271.9,0.0500,-20.74,79.65
669,218776.2,0.0500,-20.55,79.21
670,221309.5,0.0500,-20.54,79.33
671,223872.1,0.0500,-20.37,79.17
672,226464.4,0.0500,-20.28,79.53
673,229086.8,0.0500,-20.04,78.94
674,231739.5,0.0500,-19.80,79.32
675,234422.9,0.0500,-19.88,78.16
676,237137.4,0.0500,-19.77,78.09
677,239883.3,0.0500,-19.52,78.39
678,242661.0,0.0500,-19.38,77.90
679,245470.9,0.0500,-19.21,77.85
680,248313.3,0.0500,-19.16,77.79
681,251188.6,0.0500,-19.03,78.11
682,254097.3,0.0500,-18.76,77.31
683,257039.6,0.0500,-18.91,74.36
684,260016.0,0.0500,-18.53,76.91
685,263026.8,0.0500,-18.42,76.68
686,266072.5,0.0500,-18.27,76.60
687,269153.5,0.0500,-18.09,76.26
688,272270.1,0.0500,-17.99,76.04
689,275422.9,0.0500,-17.86,76.02
690,278612.1,0.0500,-17.66,75.89
691,281838.3,0.0500,-17.45,75.72
692,285101.8,0.0500,-17.49,75.16
693,288403.2,0.0500,-17.23,75.18
694,291742.7,0.0500,-17.07,74.63
695,295120.9,0.0500,-16.92,74.28
696,298538.3,0.0500,-16.76,74.93
697,301995.2,0.0500,-16.41,73.80
698,305492.1,0.0500,-16.51,72.92
699,309029.5,0.0500,-16.24,73.37
700,312607.9,0.0500,-15.87,73.50
701,316227.8,0.0500,-15.93,72.44
702,319889.5,0.0500,-15.66,71.72
703,323593.7,0.0500,-15.53,72.02
704,327340.7,0.0500,-15.77,72.49
705,331131.1,0.0500,-15.21,69.03
706,334965.4,0.0500,-15.02,71.06
707,338844.2,0.0500,-14.53,71.77
708,342767.8,0.0500,-14.68,69.83
709,346736.9,0.0500,-14.42,70.35
710,350751.9,0.0500,-14.28,70.92
711,354813.4,0.0500,-14.03,69.22
712,358921.9,0.0500,-13.88,68.37
713,363078.1,0.0500,-13.64,67.82
714,367282.3,0.0500,-13.25,68.22
715,371535.2,0.0500,-13.29,66.91
716,375837.4,0.0500,-12.97,66.22
717,380189.4,0.0500,-12.67,65.47
718,384591.8,0.0500,-12.62,64.98
719,389045.1,0.0500,-12.39,65.43
720,393550.1,0.0500,-12.19,61.40
721,398107.2,0.0500,-11.96,63.11
722,402717.0,0.0500,-11.76,63.02
723,407380.3,0.0500,-11.51,61.70
724,412097.5,0.0500,-11.28,60.74
725,416869.4,0.0500,-10.99,60.01
726,421696.5,0.0500,-10.77,59.88
727,426579.5,0.0500,-10.57,57.55
728,431519.1,0.0500,-10.30,56.91
729,436515.8,0.0500,-9.95,55.64
730,441570.4,0.0500,-9.84,55.21
731,446683.6,0.0500,-9.60,54.69
732,451855.9,0.0500,-9.30,52.44
733,457088.2,0.0500,-8.94,51.07
734,462381.0,0.0500,-8.72,50.21
735,467735.1,0.0500,-8.44,48.21
736,473151.3,0.0500,-7.97,46.68
737,478630.1,0.0500,-7.72,44.75
738,484172.4,0.0500,-7.58,43.11
739,489778.8,0.0500,-7.32,41.72
740,495450.2,0.0500,-7.06,39.45
741,501187.2,0.0500,-6.95,37.80
742,506990.7,0.0500,-6.52,34.98
743,512861.4,0.0500,-6.24,32.24
744,518800.0,0.0500,-6.00,30.14
745,524807.5,0.0500,-5.95,26.84
746,530884.4,0.0500,-5.56,24.45
747,537031.8,0.0500,-5.28,21.56
748,543250.3,0.0500,-4.98,18.15
749,549540.9,0.0500,-4.98,13.50
750,555904.3,0.0500,-4.96,10.69
751,562341.3,0.0500,-4.61,7.70
752,568852.9,0.0500,-4.55,4.35
753,575439.9,0.0500,-4.54,0.69
754,582103.2,0.0500,-4.50,-3.15
755,588843.7,0.0500,-4.51,-6.89
756,595662.1,0.0500,-4.62,-10.83
757,602559.6,0.0500,-4.65,-13.99
758,609536.9,0.0500,-4.89,-18.51
759,616595.0,0.0500,-4.97,-20.20
760,623734.8,0.0500,-5.13,-24.38
761,630957.3,0.0500,-5.37,-27.62
762,638263.5,0.0500,-5.59,-31.49
763,645654.2,0.0500,-5.78,-33.54
764,653130.6,0.0500,-6.05,-36.26
765,660693.4,0.0500,-6.25,-38.62
766,668343.9,0.0500,-6.58,-40.94
767,676083.0,0.0500,-7.07,-41.93
768,683911.6,0.0500,-7.05,-45.77
769,691831.0,0.0500,-7.36,-47.25
770,699842.0,0.0500,-7.58,-47.77
771,707945.8,0.0500,-7.95,-50.73
772,716143.4,0.0500,-8.30,-52.95
773,724436.0,0.0500,-8.56,-54.31
774,732824.5,0.0500,-8.75,-55.17
775,741310.2,0.0500,-9.07,-57.61
776,749894.2,0.0500,-9.36,-58.56
777,758577.6,0.0500,-9.56,-59.14
778,767361.5,0.0500,-9.89,-60.56
779,776247.1,0.0500,-10.43,-62.31
780,785235.6,0.0500,-10.37,-63.07
781,794328.2,0.0500,-10.67,-64.08
782,803526.1,0.0500,-11.29,-62.79
783,812830.5,0.0500,-11.15,-66.37
784,822242.6,0.0500,-11.41,-66.36
785,831763.8,0.0500,-11.38,-67.60
786,841395.1,0.0500,-11.83,-68.56
787,851138.0,0.0500,-12.10,-69.10
788,860993.8,0.0500,-12.34,-70.39
789,870963.6,0.0500,-12.62,-70.60
790,881048.9,0.0500,-12.71,-71.36
791,891250.9,0.0500,-13.04,-71.97
792,901571.1,0.0500,-13.24,-72.47
793,912010.8,0.0500,-13.38,-73.14
794,922571.4,0.0500,-13.60,-73.75
795,933254.3,0.0500,-13.83,-74.14
796,944060.9,0.0500,-13.94,-75.27
797,954992.6,0.0500,-14.28,-75.20
798,966050.9,0.0500,-14.40,-75.75
799,977237.2,0.0500,-14.68,-75.68
800,988553.1,0.0500,-14.79,-76.79
801,1000000.0,0.0500,-14.94,-78.04
802,1011579.5,0.0500,-15.25,-77.14
803,1023293.0,0.0500,-15.36,-78.18
804,1035142.2,0.0500,-15.52,-78.27
805,1047128.5,0.0500,-15.78,-78.25
806,1059253.7,0.0500,-15.95,-79.18
807,1071519.3,0.0500,-16.17,-79.76
808,1083926.9,0.0500,-16.31,-80.41
809,1096478.2,0.0500,-16.41,-79.15
810,1109174.8,0.0500,-16.66,-79.80
811,1122018.5,0.0500,-16.79,-80.52
812,1135010.8,0.0500,-16.96,-81.23
813,1148153.6,0.0500,-17.29,-80.49
814,1161448.6,0.0500,-17.29,-82.10
815,1174897.6,0.0500,-17.53,-82.22
816,1188502.2,0.0500,-17.64,-82.30
817,1202264.4,0.0500,-17.77,-82.17
818,1216186.0,0.0500,-17.91,-82.78
819,1230268.8,0.0500,-18.04,-82.98
820,1244514.6,0.0500,-18.23,-83.52
821,1258925.4,0.0500,-18.45,-84.17
822,1273503.1,0.0500,-18.65,-83.79
823,1288249.6,0.0500,-18.93,-84.60
824,1303166.8,0.0500,-19.07,-84.20
825,1318256.7,0.0500,-19.01,-85.13
826,1333521.4,0.0500,-19.17,-84.12
827,1348962.9,0.0500,-19.36,-85.70
828,1364583.1,0.0500,-19.43,-86.26
829,1380384.3,0.0500,-19.65,-85.76
830,1396368.4,0.0500,-19.70,-85.66
831,1412537.5,0.0500,-19.84,-86.57
832,1428894.0,0.0500,-20.15,-86.44
833,1445439.8,0.0500,-20.27,-87.20
834,1462177.2,0.0500,-20.39,-87.26
835,1479108.4,0.0500,-20.55,-86.91
836,1496235.7,0.0500,-20.44,-87.95
837,1513561.2,0.0500,-20.60,-89.22
838,1531087.5,0.0500,-20.97,-87.50
839,1548816.6,0.0500,-21.10,-87.59
840,1566751.1,0.0500,-21.17,-89.07
841,1584893.2,0.0500,-21.20,-88.60
842,1603245.4,0.0500,-21.49,-88.94
843,1621810.1,0.0500,-21.60,-88.86
844,1640589.8,0.0500,-21.93,-88.98
845,1659586.9,0.0500,-21.75,-89.65
846,1678804.0,0.0500,-21.96,-90.51
847,1698243.7,0.0500,-22.12,-89.96
848,1717908.4,0.0500,-22.33,-90.30
849,1737800.8,0.0500,-22.40,-91.11
850,1757923.6,0.0500,-22.37,-89.32
851,1778279.4,0.0500,-22.74,-91.09
852,1798870.9,0.0500,-22.70,-92.15
853,1819700.9,0.0500,-22.95,-91.53
854,1840772.0,0.0500,-23.19,-92.14
855,1862087.1,0.0500,-23.41,-90.22
856,1883649.1,0.0500,-23.51,-94.24
857,1905460.7,0.0500,-23.61,-93.30
858,1927524.9,0.0500,-23.72,-92.81
859,1949844.6,0.0500,-23.75,-92.76
860,1972422.7,0.0500,-23.75,-95.06
861,1995262.3,0.0500,-24.20,-92.84
862,2018366.4,0.0500,-24.19,-95.10
863,2041737.9,0.0500,-24.31,-94.85
864,2065380.2,0.0500,-24.52,-93.29
865,2089296.1,0.0500,-24.78,-95.56
866,2113489.0,0.0500,-24.85,-95.51
867,2137962.1,0.0500,-24.74,-94.61
868,2162718.5,0.0500,-25.33,-94.79
869,2187761.6,0.0500,-24.97,-96.69
870,2213094.7,0.0500,-25.50,-97.43
871,2238721.1,0.0500,-25.70,-96.52
872,2264644.3,0.0500,-25.89,-96.90
873,2290867.7,0.0500,-26.42,-98.34
874,2317394.6,0.0500,-25.64,-97.57
875,2344228.8,0.0500,-26.66,-98.85
876,2371373.7,0.0500,-26.50,-100.24
877,2398832.9,0.0500,-26.84,-99.18
878,2426610.1,0.0500,-26.98,-98.76
879,2454708.9,0.0500,-27.17,-102.23
880,2483133.1,0.0500,-27.27,-101.05
881,2511886.4,0.0500,-27.49,-100.25
882,2540972.7,0.0500,-27.30,-102.14
883,2570395.8,0.0500,-27.99,-101.53
884,2600159.6,0.0500,-28.25,-102.30
885,2630268.0,0.0500,-28.84,-102.32
886,2660725.1,0.0500,-28.96,-104.24
887,2691534.8,0.0500,-29.49,-105.23
888,2722701.3,0.0500,-30.05,-104.95
889,2754228.7,0.0500,-30.12,-104.17
890,2786121.2,0.0500,-30.82,-105.30
891,2818382.9,0.0500,-31.56,-106.94
892,2851018.3,0.0500,-31.99,-102.81
893,2884031.5,0.0500,-32.68,-102.15
894,2917427.0,0.0500,-33.85,-105.96
895,2951209.2,0.0500,-32.96,-93.49
896,2985382.6,0.0500,-36.44,-90.99
897,3019951.7,0.0500,-37.17,-77.87
898,3054921.1,0.0500,-37.24,-68.10
899,3090295.4,0.0500,-35.59,-56.06
900,3126079.4,0.0500,-34.68,-44.85
901,3162277.7,0.0500,-33.00,-35.86
902,3198895.1,0.0500,-31.12,-31.53
903,3235936.6,0.0500,-29.47,-38.23
904,3273406.9,0.0500,-28.21,-44.26
905,3311311.2,0.0500,-27.27,-48.53
906,3349654.4,0.0500,-26.98,-54.83
907,3388441.6,0.0500,-26.75,-60.90
908,3427677.9,0.0500,-26.70,-65.49
909,3467368.5,0.0500,-26.91,-70.25
910,3507518.7,0.0500,-27.93,-75.68
911,3548133.9,0.0500,-27.20,-75.33
912,3589219.3,0.0500,-27.24,-75.43
913,3630780.5,0.0500,-27.40,-78.69
914,3672823.0,0.0500,-27.46,-80.43
915,3715352.3,0.0500,-27.68,-82.72
916,3758374.0,0.0500,-27.69,-84.54
917,3801894.0,0.0500,-27.75,-86.73
918,3845917.8,0.0500,-27.79,-80.28
919,3890451.4,0.0500,-28.20,-87.19
920,3935500.8,0.0500,-28.34,-91.39
921,3981071.7,0.0500,-28.64,-91.83
922,4027170.3,0.0500,-28.46,-94.23
923,4073802.8,0.0500,-28.10,-94.91
924,4120975.2,0.0500,-29.12,-94.63
925,4168693.8,0.0500,-28.68,-93.33
926,4216965.0,0.0500,-29.46,-96.62
927,4265795.2,0.0500,-29.85,-98.75
928,4315190.8,0.0500,-30.10,-100.98
929,4365158.3,0.0500,-29.65,-100.70
930,4415704.5,0.0500,-29.94,-102.24
931,4466835.9,0.0500,-30.22,-102.65
932,4518559.4,0.0500,-30.50,-103.25
933,4570881.9,0.0500,-30.51,-104.54
934,4623810.2,0.0500,-30.76,-106.29
935,4677351.4,0.0500,-30.69,-108.52
936,4731512.6,0.0500,-30.95,-107.45
937,4786300.9,0.0500,-29.14,-117.36
938,4841723.7,0.0500,-31.30,-109.40
939,4897788.2,0.0500,-31.33,-112.34
940,4954501.9,0.0500,-31.61,-112.04
941,5011872.3,0.0500,-31.97,-112.42
942,5069907.1,0.0500,-28.46,-113.32
943,5128613.8,0.0500,-31.90,-116.93
944,5188000.4,0.0500,-32.36,-118.12
945,5248074.6,0.0500,-32.72,-112.48
946,5308844.4,0.0500,-32.60,-121.21
947,5370318.0,0.0500,-33.99,-94.94
948,5432503.3,0.0500,-32.84,-120.89
949,5495408.7,0.0500,-33.23,-125.12
950,5559042.6,0.0500,-33.09,-122.28
951,5623413.3,0.0500,-34.04,-152.13
952,5688529.3,0.0500,-33.51,-125.81
953,5754399.4,0.0500,-34.28,-125.08
954,5821032.2,0.0500,-33.77,-131.89
955,5888436.6,0.0500,-33.80,-131.99
956,5956621.4,0.0500,-34.31,-137.28
957,6025595.9,0.0500,-34.02,-136.68
958,6095369.0,0.0500,-34.72,-134.46
959,6165950.0,0.0500,-34.20,-140.10
960,6237348.4,0.0500,-35.13,-144.90
961,6309573.4,0.0500,-34.81,-146.51
962,6382634.9,0.0500,-34.48,-147.25
963,6456542.3,0.0500,-35.16,-147.56
964,6531305.5,0.0500,-34.95,-151.31
965,6606934.5,0.0500,-36.40,-155.05
966,6683439.2,0.0500,-35.90,-152.92
967,6760829.8,0.0500,-36.15,-155.78
968,6839116.5,0.0500,-36.52,-153.61
969,6918309.7,0.0500,-35.84,-155.80
970,6998420.0,0.0500,-33.78,-164.81
971,7079457.8,0.0500,-36.64,-153.74
972,7161434.1,0.0500,-35.54,-157.89
973,7244359.6,0.0500,-35.34,-162.93
974,7328245.3,0.0500,-35.14,-163.92
975,7413102.4,0.0500,-35.00,-166.05
976,7498942.1,0.0500,-35.33,187.29
977,7585775.8,0.0500,-36.25,169.89
978,7673614.9,0.0500,-34.56,182.38
979,7762471.2,0.0500,-33.50,182.56
980,7852356.3,0.0500,-33.28,174.79
981,7943282.3,0.0500,-33.68,174.66
982,8035261.2,0.0500,-32.98,175.24
983,8128305.2,0.0500,-33.05,170.18
984,8222426.5,0.0500,-32.37,169.14
985,8317637.7,0.0500,-32.36,164.61
986,8413951.4,0.0500,-32.66,164.00
987,8511380.4,0.0500,-31.34,155.97
988,8609937.5,0.0500,-31.67,148.87
989,8709635.9,0.0500,-31.07,145.59
990,8810488.7,0.0500,-31.00,138.67
991,8912509.4,0.0500,-30.96,136.79
992,9015711.4,0.0500,-31.51,127.70
993,9120108.4,0.0500,-32.56,128.09
994,9225714.3,0.0500,-33.01,123.43
995,9332543.0,0.0500,-33.73,136.10
996,9440608.8,0.0500,-33.37,137.51
997,9549925.9,0.0500,-32.90,138.44
998,9660508.8,0.0500,-31.94,137.10
999,9772372.2,0.0500,-29.60,125.53
1000,9885530.9,0.0500,-30.68,133.04
1001,10000000.0,0.0500,-30.61,132.50
