#, Frequency (Hz), Amplitude (Vpp), Gain (dB), Phase (°)
1,100.0,0.0500,-60.33,1.20
2,101.2,0.0500,-60.84,2.74
3,102.3,0.0500,-60.25,1.97
4,103.5,0.0500,-59.92,-0.79
5,104.7,0.0500,-60.47,0.72
6,105.9,0.0500,-60.26,-2.31
7,107.2,0.0500,-60.54,-1.55
8,108.4,0.0500,-60.04,-0.70
9,109.6,0.0500,-61.00,2.26
10,110.9,0.0500,-60.49,3.87
11,112.2,0.0500,-59.97,0.36
12,113.5,0.0500,-61.30,6.66
13,114.8,0.0500,-61.34,5.08
14,116.1,0.0500,-60.02,0.23
15,117.5,0.0500,-59.86,4.27
16,118.9,0.0500,-60.43,1.65
17,120.2,0.0500,-60.56,1.92
18,121.6,0.0500,-59.94,3.02
19,123.0,0.0500,-60.70,3.06
20,124.5,0.0500,-59.93,-2.75
21,125.9,0.0500,-60.63,9.00
22,127.4,0.0500,-61.01,1.13
23,128.8,0.0500,-60.09,3.56
24,130.3,0.0500,-60.42,0.25
25,131.8,0.0500,-59.98,0.76
26,133.4,0.0500,-61.05,1.40
27,134.9,0.0500,-60.33,4.92
28,136.5,0.0500,-59.96,1.75
29,138.0,0.0500,-60.75,4.18
30,139.6,0.0500,-60.06,2.94
31,141.3,0.0500,-60.62,5.70
32,142.9,0.0500,-60.50,1.10
33,144.5,0.0500,-60.48,-1.02
34,146.2,0.0500,-60.85,2.03
35,147.9,0.0500,-59.64,-0.11
36,149.6,0.0500,-60.06,6.69
37,151.4,0.0500,-59.95,4.48
38,153.1,0.0500,-61.24,3.56
39,154.9,0.0500,-60.42,1.92
40,156.7,0.0500,-60.73,4.64
41,158.5,0.0500,-60.16,5.99
42,160.3,0.0500,-60.27,2.71
43,162.2,0.0500,-61.01,9.01
44,164.1,0.0500,-60.17,1.93
45,166.0,0.0500,-59.98,3.87
46,167.9,0.0500,-60.24,4.69
47,169.8,0.0500,-60.18,9.14
48,171.8,0.0500,-60.78,6.86
49,173.8,0.0500,-60.38,2.89
50,175.8,0.0500,-60.40,4.42
51,177.8,0.0500,-60.20,8.55
52,179.9,0.0500,-59.98,1.60
53,182.0,0.0500,-60.58,1.34
54,184.1,0.0500,-59.84,3.89
55,186.2,0.0500,-60.15,3.92
56,188.4,0.0500,-60.20,7.39
57,190.5,0.0500,-60.41,7.20
58,192.8,0.0500,-60.53,1.30
59,195.0,0.0500,-59.79,6.26
60,197.2,0.0500,-60.09,5.40
61,199.5,0.0500,-60.13,5.75
62,201.8,0.0500,-60.19,3.26
63,204.2,0.0500,-60.65,4.66
64,206.5,0.0500,-60.13,5.89
65,208.9,0.0500,-59.90,7.71
66,211.3,0.0500,-60.87,3.51
67,213.8,0.0500,-59.89,4.39
68,216.3,0.0500,-60.49,3.53
69,218.8,0.0500,-59.84,3.18
70,221.3,0.0500,-61.11,4.54
71,223.9,0.0500,-60.44,3.36
72,226.5,0.0500,-60.40,7.95
73,229.1,0.0500,-60.58,5.73
74,231.7,0.0500,-60.38,8.72
75,234.4,0.0500,-60.11,4.83
76,237.1,0.0500,-60.45,5.03
77,239.9,0.0500,-60.20,8.88
78,242.7,0.0500,-60.50,4.63
79,245.5,0.0500,-59.91,5.12
80,248.3,0.0500,-60.75,11.02
81,251.2,0.0500,-60.16,2.49
82,254.1,0.0500,-59.81,7.58
83,257.0,0.0500,-60.56,3.50
84,260.0,0.0500,-60.45,3.00
85,263.0,0.0500,-59.97,5.40
86,266.1,0.0500,-60.39,4.60
87,269.2,0.0500,-60.62,4.84
88,272.3,0.0500,-60.89,5.71
89,275.4,0.0500,-60.38,6.64
90,278.6,0.0500,-60.20,11.57
91,281.8,0.0500,-60.29,5.05
92,285.1,0.0500,-60.22,7.91
93,288.4,0.0500,-60.89,4.90
94,291.7,0.0500,-60.40,5.81
95,295.1,0.0500,-59.90,5.12
96,298.5,0.0500,-59.97,8.02
97,302.0,0.0500,-60.90,7.75
98,305.5,0.0500,-60.38,7.53
99,309.0,0.0500,-60.36,8.87
100,312.6,0.0500,-59.97,5.88
101,316.2,0.0500,-60.61,11.80
102,319.9,0.0500,-60.61,8.99
103,323.6,0.0500,-60.30,4.51
104,327.3,0.0500,-60.74,9.94
105,331.1,0.0500,-59.91,7.38
106,335.0,0.0500,-60.19,8.66
107,338.8,0.0500,-60.04,7.85
108,342.8,0.0500,-60.73,3.73
109,346.7,0.0500,-60.70,9.60
110,350.8,0.0500,-60.27,10.41
111,354.8,0.0500,-60.14,7.53
112,358.9,0.0500,-60.47,11.75
113,363.1,0.0500,-60.21,13.14
114,367.3,0.0500,-60.47,5.96
115,371.5,0.0500,-60.36,13.19
116,375.8,0.0500,-60.40,10.71
117,380.2,0.0500,-60.02,6.69
118,384.6,0.0500,-60.07,10.19
119,389.0,0.0500,-60.73,10.67
120,393.6,0.0500,-60.54,10.25
121,398.1,0.0500,-60.09,8.64
122,402.7,0.0500,-60.02,10.31
123,407.4,0.0500,-59.51,9.80
124,412.1,0.0500,-60.24,14.58
125,416.9,0.0500,-60.51,9.60
126,421.7,0.0500,-60.55,9.62
127,426.6,0.0500,-59.93,8.14
128,431.5,0.0500,-60.94,8.43
129,436.5,0.0500,-60.13,7.62
130,441.6,0.0500,-59.99,8.95
131,446.7,0.0500,-59.95,13.16
132,451.9,0.0500,-60.51,11.81
133,457.1,0.0500,-60.18,11.96
134,462.4,0.0500,-59.65,9.80
135,467.7,0.0500,-59.66,12.94
136,473.2,0.0500,-59.71,15.03
137,478.6,0.0500,-60.22,10.37
138,484.2,0.0500,-60.27,14.87
139,489.8,0.0500,-60.15,11.11
140,495.5,0.0500,-59.75,13.96
141,501.2,0.0500,-59.85,14.28
142,507.0,0.0500,-60.67,12.17
143,512.9,0.0500,-60.88,16.68
144,518.8,0.0500,-60.16,12.22
145,524.8,0.0500,-59.94,9.65
146,530.9,0.0500,-60.35,11.62
147,537.0,0.0500,-59.95,13.78
148,543.3,0.0500,-60.49,15.20
149,549.5,0.0500,-60.31,13.28
150,555.9,0.0500,-59.62,13.75
151,562.3,0.0500,-59.49,13.54
152,568.9,0.0500,-60.04,10.84
153,575.4,0.0500,-59.85,15.79
154,582.1,0.0500,-59.85,12.84
155,588.8,0.0500,-60.12,16.41
156,595.7,0.0500,-60.15,14.15
157,602.6,0.0500,-59.98,15.31
158,609.5,0.0500,-60.04,16.27
159,616.6,0.0500,-59.83,18.40
160,623.7,0.0500,-60.18,15.54
161,631.0,0.0500,-59.53,14.15
162,638.3,0.0500,-59.73,14.23
163,645.7,0.0500,-59.65,14.42
164,653.1,0.0500,-59.73,11.99
165,660.7,0.0500,-59.89,15.72
166,668.3,0.0500,-59.93,14.88
167,676.1,0.0500,-59.60,17.86
168,683.9,0.0500,-59.82,15.28
169,691.8,0.0500,-60.05,15.52
170,699.8,0.0500,-59.82,24.86
171,707.9,0.0500,-60.21,15.40
172,716.1,0.0500,-59.67,13.95
173,724.4,0.0500,-60.14,17.42
174,732.8,0.0500,-59.61,17.50
175,741.3,0.0500,-60.11,19.49
176,749.9,0.0500,-60.03,19.26
177,758.6,0.0500,-60.14,16.37
178,767.4,0.0500,-58.73,15.68
179,776.2,0.0500,-60.29,20.70
180,785.2,0.0500,-59.56,18.16
181,794.3,0.0500,-59.82,26.18
182,803.5,0.0500,-60.04,21.93
183,812.8,0.0500,-59.57,22.24
184,822.2,0.0500,-59.87,17.59
185,831.8,0.0500,-59.45,21.50
186,841.4,0.0500,-59.30,17.39
187,851.1,0.0500,-59.83,19.97
188,861.0,0.0500,-59.43,20.49
189,871.0,0.0500,-59.55,21.70
190,881.0,0.0500,-59.65,21.97
191,891.3,0.0500,-59.30,19.43
192,901.6,0.0500,-59.33,21.27
193,912.0,0.0500,-60.20,22.41
194,922.6,0.0500,-59.71,22.06
195,933.3,0.0500,-59.33,22.14
196,944.1,0.0500,-59.27,25.54
197,955.0,0.0500,-59.81,21.04
198,966.1,0.0500,-59.21,26.43
199,977.2,0.0500,-59.96,25.55
200,988.6,0.0500,-60.12,26.22
201,1000.0,0.0500,-59.58,25.26
202,1011.6,0.0500,-59.48,21.69
203,1023.3,0.0500,-59.22,23.94
204,1035.1,0.0500,-59.27,23.53
205,1047.1,0.0500,-59.20,24.13
206,1059.3,0.0500,-59.02,23.00
207,1071.5,0.0500,-59.37,22.97
208,1083.9,0.0500,-58.97,24.76
209,1096.5,0.0500,-58.96,24.68
210,1109.2,0.0500,-59.09,28.23
211,1122.0,0.0500,-59.21,30.29
212,1135.0,0.0500,-59.15,26.59
213,1148.2,0.0500,-60.15,31.98
214,1161.4,0.0500,-59.11,28.84
215,1174.9,0.0500,-59.35,26.17
216,1188.5,0.0500,-59.42,26.76
217,1202.3,0.0500,-59.24,28.81
218,1216.2,0.0500,-59.56,27.49
219,1230.3,0.0500,-59.21,29.80
220,1244.5,0.0500,-58.79,30.32
221,1258.9,0.0500,-59.33,27.27
222,1273.5,0.0500,-59.35,29.29
223,1288.2,0.0500,-58.89,31.16
224,1303.2,0.0500,-58.95,29.00
225,1318.3,0.0500,-58.78,29.86
226,1333.5,0.0500,-59.57,30.74
227,1349.0,0.0500,-58.67,30.61
228,1364.6,0.0500,-58.75,30.51
229,1380.4,0.0500,-59.13,32.52
230,1396.4,0.0500,-59.61,34.07
231,1412.5,0.0500,-59.04,32.11
232,1428.9,0.0500,-58.42,29.18
233,1445.4,0.0500,-58.95,34.55
234,1462.2,0.0500,-59.13,29.59
235,1479.1,0.0500,-58.64,33.90
236,1496.2,0.0500,-58.79,33.21
237,1513.6,0.0500,-59.17,36.58
238,1531.1,0.0500,-58.77,34.58
239,1548.8,0.0500,-58.69,35.00
240,1566.8,0.0500,-58.02,33.11
241,1584.9,0.0500,-58.67,35.61
242,1603.2,0.0500,-58.75,34.03
243,1621.8,0.0500,-58.61,36.33
244,1640.6,0.0500,-58.47,37.54
245,1659.6,0.0500,-58.26,35.00
246,1678.8,0.0500,-57.97,37.95
247,1698.2,0.0500,-58.04,36.19
248,1717.9,0.0500,-58.11,37.49
249,1737.8,0.0500,-58.43,38.15
250,1757.9,0.0500,-58.17,39.86
251,1778.3,0.0500,-58.13,36.06
252,1798.9,0.0500,-58.46,36.26
253,1819.7,0.0500,-58.11,37.40
254,1840.8,0.0500,-58.12,39.75
255,1862.1,0.0500,-58.15,37.71
256,1883.6,0.0500,-57.66,42.11
257,1905.5,0.0500,-58.01,40.96
258,1927.5,0.0500,-58.21,40.75
259,1949.8,0.0500,-58.04,42.76
260,1972.4,0.0500,-58.02,41.50
261,1995.3,0.0500,-57.64,41.84
262,2018.4,0.0500,-57.56,38.38
263,2041.7,0.0500,-57.88,43.10
264,2065.4,0.0500,-57.30,42.23
265,2089.3,0.0500,-56.96,43.77
266,2113.5,0.0500,-57.54,44.76
267,2138.0,0.0500,-57.37,42.92
268,2162.7,0.0500,-57.33,42.72
269,2187.8,0.0500,-57.32,42.94
270,2213.1,0.0500,-57.15,43.89
271,2238.7,0.0500,-56.97,45.64
272,2264.6,0.0500,-57.26,44.61
273,2290.9,0.0500,-57.12,43.77
274,2317.4,0.0500,-56.98,43.82
275,2344.2,0.0500,-57.20,44.28
276,2371.4,0.0500,-57.16,47.27
277,2398.8,0.0500,-56.77,45.12
278,2426.6,0.0500,-56.82,47.92
279,2454.7,0.0500,-56.80,46.23
280,2483.1,0.0500,-56.89,48.18
281,2511.9,0.0500,-56.50,46.22
282,2541.0,0.0500,-56.77,49.93
283,2570.4,0.0500,-56.70,47.76
284,2600.2,0.0500,-56.68,48.15
285,2630.3,0.0500,-56.67,48.32
286,2660.7,0.0500,-57.01,49.81
287,2691.5,0.0500,-56.59,49.46
288,2722.7,0.0500,-56.46,49.13
289,2754.2,0.0500,-56.49,51.23
290,2786.1,0.0500,-56.44,48.56
291,2818.4,0.0500,-56.07,50.60
292,2851.0,0.0500,-56.10,49.62
293,2884.0,0.0500,-56.27,52.95
294,2917.4,0.0500,-55.97,54.74
295,2951.2,0.0500,-55.62,52.06
296,2985.4,0.0500,-55.73,51.38
297,3020.0,0.0500,-55.81,51.07
298,3054.9,0.0500,-55.73,52.75
299,3090.3,0.0500,-55.95,52.04
300,3126.1,0.0500,-55.63,52.57
301,3162.3,0.0500,-55.28,53.60
302,3198.9,0.0500,-55.41,54.86
303,3235.9,0.0500,-55.48,54.95
304,3273.4,0.0500,-55.12,56.59
305,3311.3,0.0500,-55.24,55.83
306,3349.7,0.0500,-55.10,56.02
307,3388.4,0.0500,-54.83,54.88
308,3427.7,0.0500,-54.92,56.71
309,3467.4,0.0500,-55.05,55.09
310,3507.5,0.0500,-54.92,57.35
311,3548.1,0.0500,-54.60,55.84
312,3589.2,0.0500,-55.05,57.91
313,3630.8,0.0500,-54.69,56.51
314,3672.8,0.0500,-54.68,56.99
315,3715.4,0.0500,-54.39,57.51
316,3758.4,0.0500,-53.88,61.63
317,3801.9,0.0500,-54.58,59.80
318,3845.9,0.0500,-54.44,58.51
319,3890.5,0.0500,-54.24,59.20
320,3935.5,0.0500,-54.13,59.62
321,3981.1,0.0500,-54.09,58.70
322,4027.2,0.0500,-54.34,61.46
323,4073.8,0.0500,-53.67,60.21
324,4121.0,0.0500,-53.86,59.91
325,4168.7,0.0500,-53.84,61.02
326,4217.0,0.0500,-53.81,60.94
327,4265.8,0.0500,-53.90,60.84
328,4315.2,0.0500,-53.50,61.15
329,4365.2,0.0500,-53.62,63.41
330,4415.7,0.0500,-53.35,62.79
331,4466.8,0.0500,-53.36,62.87
332,4518.6,0.0500,-53.20,63.23
333,4570.9,0.0500,-53.02,62.93
334,4623.8,0.0500,-53.05,63.13
335,4677.4,0.0500,-52.87,64.08
336,4731.5,0.0500,-52.94,63.56
337,4786.3,0.0500,-53.12,64.23
338,4841.7,0.0500,-52.69,65.45
339,4897.8,0.0500,-52.79,64.90
340,4954.5,0.0500,-52.47,63.10
341,5011.9,0.0500,-52.41,63.84
342,5069.9,0.0500,-52.47,65.69
343,5128.6,0.0500,-52.32,66.17
344,5188.0,0.0500,-52.51,66.24
345,5248.1,0.0500,-52.28,65.25
346,5308.8,0.0500,-51.94,65.09
347,5370.3,0.0500,-52.05,66.89
348,5432.5,0.0500,-51.91,66.92
349,5495.4,0.0500,-51.95,67.62
350,5559.0,0.0500,-51.76,66.90
351,5623.4,0.0500,-51.82,67.95
352,5688.5,0.0500,-51.58,68.49
353,5754.4,0.0500,-51.62,68.26
354,5821.0,0.0500,-51.59,69.40
355,5888.4,0.0500,-51.22,68.70
356,5956.6,0.0500,-51.23,68.11
357,6025.6,0.0500,-51.18,68.90
358,6095.4,0.0500,-51.08,68.20
359,6166.0,0.0500,-51.04,70.59
360,6237.3,0.0500,-50.93,69.84
361,6309.6,0.0500,-50.75,70.73
362,6382.6,0.0500,-50.56,68.91
363,6456.5,0.0500,-50.69,69.47
364,6531.3,0.0500,-50.33,69.85
365,6606.9,0.0500,-50.31,71.36
366,6683.4,0.0500,-50.25,71.09
367,6760.8,0.0500,-50.05,71.96
368,6839.1,0.0500,-50.06,72.68
369,6918.3,0.0500,-50.30,71.75
370,6998.4,0.0500,-49.93,71.48
371,7079.5,0.0500,-49.41,71.62
372,7161.4,0.0500,-50.09,71.54
373,7244.4,0.0500,-49.76,71.88
374,7328.2,0.0500,-49.64,74.13
375,7413.1,0.0500,-49.61,73.25
376,7498.9,0.0500,-49.56,72.37
377,7585.8,0.0500,-49.42,72.45
378,7673.6,0.0500,-49.27,72.67
379,7762.5,0.0500,-49.34,74.47
380,7852.4,0.0500,-48.93,73.08
381,7943.3,0.0500,-48.97,73.23
382,8035.3,0.0500,-49.01,73.48
383,8128.3,0.0500,-48.85,73.96
384,8222.4,0.0500,-48.54,74.35
385,8317.6,0.0500,-48.59,73.13
386,8414.0,0.0500,-48.57,74.68
387,8511.4,0.0500,-48.43,75.07
388,8609.9,0.0500,-48.21,74.75
389,8709.6,0.0500,-48.31,75.34
390,8810.5,0.0500,-48.26,74.93
391,8912.5,0.0500,-48.17,75.16
392,9015.7,0.0500,-47.85,75.79
393,9120.1,0.0500,-48.02,75.26
394,9225.7,0.0500,-47.70,76.40
395,9332.5,0.0500,-47.58,76.03
396,9440.6,0.0500,-47.60,76.86
397,9549.9,0.0500,-47.39,76.11
398,9660.5,0.0500,-47.37,75.34
399,9772.4,0.0500,-47.28,76.06
400,9885.5,0.0500,-47.21,76.10
401,10000.0,0.0500,-47.05,76.62
402,10115.8,0.0500,-46.99,76.73
403,10232.9,0.0500,-46.95,77.32
404,10351.4,0.0500,-46.79,76.20
405,10471.3,0.0500,-46.75,77.49
406,10592.5,0.0500,-46.58,77.20
407,10715.2,0.0500,-46.51,77.71
408,10839.3,0.0500,-46.48,77.78
409,10964.8,0.0500,-46.37,77.97
410,11091.7,0.0500,-46.26,77.34
411,11220.2,0.0500,-46.04,77.60
412,11350.1,0.0500,-46.04,78.48
413,11481.5,0.0500,-45.90,77.89
414,11614.5,0.0500,-45.80,78.49
415,11749.0,0.0500,-45.79,77.86
416,11885.0,0.0500,-45.74,78.04
417,12022.6,0.0500,-45.52,78.72
418,12161.9,0.0500,-45.44,79.11
419,12302.7,0.0500,-45.34,78.72
420,12445.1,0.0500,-45.29,78.77
421,12589.3,0.0500,-45.19,79.28
422,12735.0,0.0500,-45.03,79.48
423,12882.5,0.0500,-44.96,79.09
424,13031.7,0.0500,-44.93,79.60
425,13182.6,0.0500,-44.79,79.26
426,13335.2,0.0500,-44.64,79.59
427,13489.6,0.0500,-44.58,80.16
428,13645.8,0.0500,-44.45,80.65
429,13803.8,0.0500,-44.40,79.95
430,13963.7,0.0500,-44.30,79.93
431,14125.4,0.0500,-44.28,80.08
432,14288.9,0.0500,-44.13,80.42
433,14454.4,0.0500,-43.96,79.73
434,14621.8,0.0500,-43.94,80.28
435,14791.1,0.0500,-43.75,80.23
436,14962.4,0.0500,-43.79,80.03
437,15135.6,0.0500,-43.64,81.00
438,15310.9,0.0500,-43.59,81.12
439,15488.2,0.0500,-43.49,80.84
440,15667.5,0.0500,-43.28,81.19
441,15848.9,0.0500,-43.21,81.18
442,16032.5,0.0500,-43.12,81.55
443,16218.1,0.0500,-42.95,81.05
444,16405.9,0.0500,-42.81,81.30
445,16595.9,0.0500,-42.84,81.44
446,16788.0,0.0500,-42.76,81.52
447,16982.4,0.0500,-42.64,81.71
448,17179.1,0.0500,-42.40,81.28
449,17378.0,0.0500,-42.43,82.45
450,17579.2,0.0500,-42.39,81.77
451,17782.8,0.0500,-42.23,81.88
452,17988.7,0.0500,-42.08,81.83
453,18197.0,0.0500,-42.08,82.08
454,18407.7,0.0500,-42.03,82.25
455,18620.9,0.0500,-41.80,82.10
456,18836.5,0.0500,-41.70,82.11
457,19054.6,0.0500,-41.59,82.33
458,19275.2,0.0500,-41.54,82.82
459,19498.4,0.0500,-41.38,82.68
460,19724.2,0.0500,-41.32,82.54
461,19952.6,0.0500,-41.24,82.57
462,20183.7,0.0500,-41.09,82.65
463,20417.4,0.0500,-41.01,82.64
464,20653.8,0.0500,-40.92,83.01
465,20893.0,0.0500,-40.83,82.54
466,21134.9,0.0500,-40.69,82.99
467,21379.6,0.0500,-40.58,83.15
468,21627.2,0.0500,-40.51,82.86
469,21877.6,0.0500,-40.46,83.27
470,22130.9,0.0500,-40.32,83.32
471,22387.2,0.0500,-40.25,82.95
472,22646.4,0.0500,-40.17,83.04
473,22908.7,0.0500,-40.03,83.38
474,23173.9,0.0500,-39.89,83.62
475,23442.3,0.0500,-39.81,83.32
476,23713.7,0.0500,-39.74,83.74
477,23988.3,0.0500,-39.66,83.59
478,24266.1,0.0500,-39.54,83.58
479,24547.1,0.0500,-39.46,83.47
480,24831.3,0.0500,-39.31,83.95
481,25118.9,0.0500,-39.20,83.82
482,25409.7,0.0500,-39.10,83.88
483,25704.0,0.0500,-39.00,83.71
484,26001.6,0.0500,-38.92,84.21
485,26302.7,0.0500,-38.74,84.13
486,26607.3,0.0500,-38.69,84.02
487,26915.3,0.0500,-38.58,83.97
488,27227.0,0.0500,-38.49,84.04
489,27542.3,0.0500,-38.42,84.57
490,27861.2,0.0500,-38.37,84.16
491,28183.8,0.0500,-38.23,84.39
492,28510.2,0.0500,-38.10,84.24
493,28840.3,0.0500,-38.02,84.44
494,29174.3,0.0500,-37.86,84.28
495,29512.1,0.0500,-37.79,84.47
496,29853.8,0.0500,-37.74,84.68
497,30199.5,0.0500,-37.62,84.49
498,30549.2,0.0500,-37.50,84.44
499,30903.0,0.0500,-37.39,84.70
500,31260.8,0.0500,-37.32,84.90
501,31622.8,0.0500,-37.21,84.56
502,31989.0,0.0500,-37.06,84.52
503,32359.4,0.0500,-36.97,84.43
504,32734.1,0.0500,-36.91,84.80
505,33113.1,0.0500,-36.80,84.37
506,33496.5,0.0500,-36.73,84.95
507,33884.4,0.0500,-36.63,84.52
508,34276.8,0.0500,-36.51,85.08
509,34673.7,0.0500,-36.35,84.95
510,35075.2,0.0500,-36.30,84.92
511,35481.3,0.0500,-36.17,84.80
512,35892.2,0.0500,-36.07,84.97
513,36307.8,0.0500,-36.01,85.10
514,36728.2,0.0500,-35.91,84.91
515,37153.5,0.0500,-35.79,84.92
516,37583.7,0.0500,-35.63,85.11
517,38018.9,0.0500,-35.59,85.07
518,38459.2,0.0500,-35.44,84.95
519,38904.5,0.0500,-35.37,85.13
520,39355.0,0.0500,-35.27,85.22
521,39810.7,0.0500,-35.16,84.94
522,40271.7,0.0500,-35.04,85.09
523,40738.0,0.0500,-34.94,85.16
524,41209.8,0.0500,-34.87,85.35
525,41686.9,0.0500,-34.76,85.16
526,42169.7,0.0500,-34.73,85.10
527,42658.0,0.0500,-34.53,85.52
528,43151.9,0.0500,-34.41,85.50
529,43651.6,0.0500,-34.36,85.43
530,44157.0,0.0500,-34.23,85.12
531,44668.4,0.0500,-34.17,84.95
532,45185.6,0.0500,-34.08,85.32
533,45708.8,0.0500,-33.99,85.31
534,46238.1,0.0500,-33.83,85.58
535,46773.5,0.0500,-33.73,85.12
536,47315.1,0.0500,-33.58,85.40
537,47863.0,0.0500,-33.53,85.44
538,48417.2,0.0500,-33.39,85.46
539,48977.9,0.0500,-33.25,85.29
540,49545.0,0.0500,-33.15,85.43
541,50118.7,0.0500,-33.04,85.38
542,50699.1,0.0500,-32.98,85.28
543,51286.1,0.0500,-32.85,85.21
544,51880.0,0.0500,-32.77,85.10
545,52480.7,0.0500,-32.66,84.85
546,53088.4,0.0500,-32.53,85.09
547,53703.2,0.0500,-32.45,85.39
548,54325.0,0.0500,-32.35,85.11
549,54954.1,0.0500,-32.29,85.24
550,55590.4,0.0500,-32.15,85.25
551,56234.1,0.0500,-32.02,85.06
552,56885.3,0.0500,-31.97,85.17
553,57544.0,0.0500,-31.81,85.14
554,58210.3,0.0500,-31.86,85.13
555,58884.4,0.0500,-31.67,85.18
556,59566.2,0.0500,-31.59,85.31
557,60256.0,0.0500,-31.54,85.11
558,60953.7,0.0500,-31.31,84.90
559,61659.5,0.0500,-31.24,85.02
560,62373.5,0.0500,-31.16,85.09
561,63095.7,0.0500,-31.06,84.95
562,63826.3,0.0500,-30.91,85.13
563,64565.4,0.0500,-30.88,85.24
564,65313.1,0.0500,-30.73,84.58
565,66069.3,0.0500,-30.65,84.83
566,66834.4,0.0500,-30.57,85.11
567,67608.3,0.0500,-30.44,84.78
568,68391.2,0.0500,-30.37,85.28
569,69183.1,0.0500,-30.20,85.11
570,69984.2,0.0500,-30.16,85.01
571,70794.6,0.0500,-30.04,84.58
572,71614.3,0.0500,-29.93,84.85
573,72443.6,0.0500,-29.83,84.86
574,73282.5,0.0500,-29.74,84.79
575,74131.0,0.0500,-29.63,84.93
576,74989.4,0.0500,-29.49,84.75
577,75857.8,0.0500,-29.44,84.94
578,76736.1,0.0500,-29.33,84.65
579,77624.7,0.0500,-29.19,84.70
580,78523.6,0.0500,-29.04,84.66
581,79432.8,0.0500,-28.98,84.56
582,80352.6,0.0500,-28.90,84.89
583,81283.1,0.0500,-28.79,84.64
584,82224.3,0.0500,-28.68,84.65
585,83176.4,0.0500,-28.58,84.57
586,84139.5,0.0500,-28.46,84.58
587,85113.8,0.0500,-28.38,84.56
588,86099.4,0.0500,-28.26,84.49
589,87096.4,0.0500,-28.18,84.68
590,88104.9,0.0500,-28.08,84.30
591,89125.1,0.0500,-27.98,84.62
592,90157.1,0.0500,-27.85,84.31
593,91201.1,0.0500,-27.74,84.58
594,92257.1,0.0500,-27.64,84.36
595,93325.4,0.0500,-27.50,84.51
596,94406.1,0.0500,-27.43,84.58
597,95499.3,0.0500,-27.28,84.30
598,96605.1,0.0500,-27.22,84.13
599,97723.7,0.0500,-27.14,84.18
600,98855.3,0.0500,-27.02,84.36
601,100000.0,0.0500,-26.88,84.33
602,101157.9,0.0500,-26.80,84.17
603,102329.3,0.0500,-26.68,84.15
604,103514.2,0.0500,-26.54,84.08
605,104712.9,0.0500,-26.50,83.81
606,105925.4,0.0500,-26.36,83.99
607,107151.9,0.0500,-26.25,84.17
608,108392.7,0.0500,-26.15,83.91
609,109647.8,0.0500,-26.03,83.92
610,110917.5,0.0500,-25.93,83.61
611,112201.8,0.0500,-25.80,83.84
612,113501.1,0.0500,-25.71,83.76
613,114815.4,0.0500,-25.60,83.70
614,116144.9,0.0500,-25.50,83.34
615,117489.8,0.0500,-25.37,83.50
616,118850.2,0.0500,-25.26,83.30
617,120226.4,0.0500,-25.21,83.34
618,121618.6,0.0500,-25.08,83.40
619,123026.9,0.0500,-24.95,83.47
620,124451.5,0.0500,-24.87,83.03
621,125892.5,0.0500,-24.73,83.14
622,127350.3,0.0500,-24.62,83.09
623,128825.0,0.0500,-24.53,83.00
624,130316.7,0.0500,-24.41,82.96
625,131825.7,0.0500,-24.26,82.85
626,133352.1,0.0500,-24.20,82.96
627,134896.3,0.0500,-24.09,82.76
628,136458.3,0.0500,-23.93,82.73
629,138038.4,0.0500,-23.82,82.70
630,139636.8,0.0500,-23.72,82.47
631,141253.8,0.0500,-23.57,81.92
632,142889.4,0.0500,-23.52,82.61
633,144544.0,0.0500,-23.40,82.43
634,146217.7,0.0500,-23.26,82.34
635,147910.8,0.0500,-23.25,81.72
636,149623.6,0.0500,-23.05,82.29
637,151356.1,0.0500,-22.91,82.19
638,153108.7,0.0500,-22.81,81.99
639,154881.7,0.0500,-22.75,81.59
640,156675.1,0.0500,-22.47,81.70
641,158489.3,0.0500,-22.40,81.97
642,160324.5,0.0500,-22.39,81.64
643,162181.0,0.0500,-22.26,81.61
644,164059.0,0.0500,-22.14,81.67
645,165958.7,0.0500,-21.86,82.29
646,167880.4,0.0500,-21.84,81.12
647,169824.4,0.0500,-21.74,81.18
648,171790.8,0.0500,-21.59,80.98
649,173780.1,0.0500,-21.51,81.17
650,175792.4,0.0500,-21.29,80.98
651,177827.9,0.0500,-21.26,80.60
652,179887.1,0.0500,-21.16,80.71
653,181970.1,0.0500,-20.93,81.21
654,184077.2,0.0500,-20.89,80.15
655,186208.7,0.0500,-20.96,80.43
656,188364.9,0.0500,-20.65,79.49
657,190546.1,0.0500,-20.51,80.12
658,192752.5,0.0500,-20.29,80.52
659,194984.5,0.0500,-20.27,79.45
660,197242.3,0.0500,-20.17,77.84
661,199526.2,0.0500,-20.06,79.49
662,201836.6,0.0500,-19.85,79.30
663,204173.8,0.0500,-19.77,80.38
664,206538.0,0.0500,-19.65,78.58
665,208929.6,0.0500,-19.48,78.98
666,211348.9,0.0500,-19.37,79.11
667,213796.2,0.0500,-19.32,77.68
668,216271.9,0.0500,-19.10,78.13
669,218776.2,0.0500,-18.96,78.36
670,221309.5,0.0500,-18.80,78.27
671,223872.1,0.0500,-18.67,77.57
672,226464.4,0.0500,-18.51,77.71
673,229086.8,0.0500,-18.43,78.00
674,231739.5,0.0500,-18.14,76.86
675,234422.9,0.0500,-18.11,77.40
676,237137.4,0.0500,-18.00,76.80
677,239883.3,0.0500,-17.88,76.63
678,242661.0,0.0500,-17.72,76.36
679,245470.9,0.0500,-17.60,76.61
680,248313.3,0.0500,-17.40,76.28
681,251188.6,0.0500,-17.29,75.98
682,254097.3,0.0500,-17.12,75.71
683,257039.6,0.0500,-16.99,73.00
684,260016.0,0.0500,-16.87,75.29
685,263026.8,0.0500,-16.75,74.60
686,266072.5,0.0500,-16.48,75.37
687,269153.5,0.0500,-16.35,74.42
688,272270.1,0.0500,-16.21,74.06
689,275422.9,0.0500,-16.07,73.60
690,278612.1,0.0500,-15.91,74.61
691,281838.3,0.0500,-15.69,73.84
692,285101.8,0.0500,-15.57,72.96
693,288403.2,0.0500,-15.39,72.82
694,291742.7,0.0500,-15.20,71.91
695,295120.9,0.0500,-15.14,72.27
696,298538.3,0.0500,-14.88,72.07
697,301995.2,0.0500,-14.67,71.51
698,305492.1,0.0500,-14.50,71.05
699,309029.5,0.0500,-14.25,71.85
700,312607.9,0.0500,-14.14,70.47
701,316227.8,0.0500,-13.96,70.03
702,319889.5,0.0500,-13.70,69.59
703,323593.7,0.0500,-13.63,70.43
704,327340.7,0.0500,-13.33,68.57
705,331131.1,0.0500,-13.19,65.64
706,334965.4,0.0500,-12.96,65.16
707,338844.2,0.0500,-12.86,66.80
708,342767.8,0.0500,-12.55,66.56
709,346736.9,0.0500,-12.45,66.07
710,350751.9,0.0500,-12.14,65.36
711,354813.4,0.0500,-12.12,62.98
712,358921.9,0.0500,-11.76,64.03
713,363078.1,0.0500,-11.51,63.35
714,367282.3,0.0500,-11.22,60.54
715,371535.2,0.0500,-11.12,62.17
716,375837.4,0.0500,-10.85,61.53
717,380189.4,0.0500,-10.68,60.34
718,384591.8,0.0500,-10.38,59.60
719,389045.1,0.0500,-10.19,58.46
720,393550.1,0.0500,-9.94,57.21
721,398107.2,0.0500,-9.65,57.58
722,402717.0,0.0500,-9.48,57.75
723,407380.3,0.0500,-9.10,54.41
724,412097.5,0.0500,-8.92,53.13
725,416869.4,0.0500,-8.65,51.37
726,421696.5,0.0500,-8.19,50.40
727,426579.5,0.0500,-8.12,49.26
728,431519.1,0.0500,-7.90,47.66
729,436515.8,0.0500,-7.62,46.21
730,441570.4,0.0500,-7.23,45.23
731,446683.6,0.0500,-6.76,44.03
732,451855.9,0.0500,-6.79,40.94
733,457088.2,0.0500,-6.49,38.81
734,462381.0,0.0500,-6.24,37.15
735,467735.1,0.0500,-5.97,34.38
736,473151.3,0.0500,-5.64,32.83
737,478630.1,0.0500,-5.45,29.72
738,484172.4,0.0500,-5.24,27.30
739,489778.8,0.0500,-4.99,24.18
740,495450.2,0.0500,-4.75,21.05
741,501187.2,0.0500,-4.81,18.93
742,506990.7,0.0500,-4.44,15.08
743,512861.4,0.0500,-4.29,11.78
744,518800.0,0.0500,-4.14,8.62
745,524807.5,0.0500,-4.01,6.04
746,530884.4,0.0500,-4.01,1.32
747,537031.8,0.0500,-4.04,-2.39
748,543250.3,0.0500,-4.03,-5.71
749,549540.9,0.0500,-4.09,-9.60
750,555904.3,0.0500,-3.93,-12.41
751,562341.3,0.0500,-4.23,-15.08
752,568852.9,0.0500,-4.41,-19.75
753,575439.9,0.0500,-4.54,-22.91
754,582103.2,0.0500,-4.90,-25.55
755,588843.7,0.0500,-4.97,-29.05
756,595662.1,0.0500,-5.19,-31.71
757,602559.6,0.0500,-5.45,-34.85
758,609536.9,0.0500,-5.66,-36.73
759,616595.0,0.0500,-5.94,-39.50
760,623734.8,0.0500,-6.08,-40.71
761,630957.3,0.0500,-6.45,-44.05
762,638263.5,0.0500,-6.71,-45.92
763,645654.2,0.0500,-7.03,-49.35
764,653130.6,0.0500,-7.34,-48.06
765,660693.4,0.0500,-7.49,-51.58
766,668343.9,0.0500,-7.69,-52.66
767,676083.0,0.0500,-8.01,-54.36
768,683911.6,0.0500,-8.39,-55.73
769,691831.0,0.0500,-8.69,-56.98
770,699842.0,0.0500,-8.87,-58.33
771,707945.8,0.0500,-9.38,-59.07
772,716143.4,0.0500,-9.40,-60.95
773,724436.0,0.0500,-9.59,-61.77
774,732824.5,0.0500,-9.92,-62.96
775,741310.2,0.0500,-10.15,-63.69
776,749894.2,0.0500,-10.33,-65.44
777,758577.6,0.0500,-10.67,-65.68
778,767361.5,0.0500,-10.84,-66.08
779,776247.1,0.0500,-11.11,-66.87
780,785235.6,0.0500,-11.34,-68.30
781,794328.2,0.0500,-11.71,-71.05
782,803526.1,0.0500,-11.89,-70.38
783,812830.5,0.0500,-12.05,-70.43
784,822242.6,0.0500,-12.22,-70.14
785,831763.8,0.0500,-12.39,-71.29
786,841395.1,0.0500,-12.65,-71.71
787,851138.0,0.0500,-12.82,-71.56
788,860993.8,0.0500,-13.04,-73.42
789,870963.6,0.0500,-13.20,-73.29
790,881048.9,0.0500,-13.38,-74.11
791,891250.9,0.0500,-13.61,-74.80
792,901571.1,0.0500,-13.75,-74.77
793,912010.8,0.0500,-13.82,-74.35
794,922571.4,0.0500,-14.22,-76.01
795,933254.3,0.0500,-14.30,-76.27
796,944060.9,0.0500,-14.50,-76.22
797,954992.6,0.0500,-14.70,-76.90
798,966050.9,0.0500,-14.94,-77.79
799,977237.2,0.0500,-15.11,-78.03
800,988553.1,0.0500,-15.01,-77.14
801,1000000.0,0.0500,-15.41,-79.26
802,1011579.5,0.0500,-15.58,-79.33
803,1023293.0,0.0500,-15.75,-79.72
804,1035142.2,0.0500,-15.88,-79.75
805,1047128.5,0.0500,-16.13,-79.86
806,1059253.7,0.0500,-16.26,-82.99
807,1071519.3,0.0500,-16.42,-80.85
808,1083926.9,0.0500,-16.50,-81.68
809,1096478.2,0.0500,-16.78,-80.98
810,1109174.8,0.0500,-17.17,-83.04
811,1122018.5,0.0500,-17.11,-81.39
812,1135010.8,0.0500,-17.39,-81.74
813,1148153.6,0.0500,-17.34,-82.77
814,1161448.6,0.0500,-17.46,-82.39
815,1174897.6,0.0500,-17.82,-83.24
816,1188502.2,0.0500,-17.79,-82.51
817,1202264.4,0.0500,-18.15,-82.65
818,1216186.0,0.0500,-18.16,-83.12
819,1230268.8,0.0500,-18.27,-83.91
820,1244514.6,0.0500,-18.49,-84.11
821,1258925.4,0.0500,-18.54,-84.56
822,1273503.1,0.0500,-18.69,-84.51
823,1288249.6,0.0500,-18.95,-85.78
824,1303166.8,0.0500,-19.05,-85.08
825,1318256.7,0.0500,-19.29,-84.47
826,1333521.4,0.0500,-19.25,-85.63
827,1348962.9,0.0500,-19.45,-85.24
828,1364583.1,0.0500,-19.75,-85.16
829,1380384.3,0.0500,-19.85,-85.93
830,1396368.4,0.0500,-19.64,-86.74
831,1412537.5,0.0500,-20.01,-87.13
832,1428894.0,0.0500,-20.14,-86.43
833,1445439.8,0.0500,-20.27,-86.88
834,1462177.2,0.0500,-20.43,-86.23
835,1479108.4,0.0500,-20.58,-86.91
836,1496235.7,0.0500,-20.75,-86.87
837,1513561.2,0.0500,-20.80,-88.54
838,1531087.5,0.0500,-20.94,-87.36
839,1548816.6,0.0500,-21.05,-88.27
840,1566751.1,0.0500,-21.23,-87.83
841,1584893.2,0.0500,-21.23,-87.33
842,1603245.4,0.0500,-21.50,-88.93
843,1621810.1,0.0500,-21.56,-88.13
844,1640589.8,0.0500,-21.70,-87.63
845,1659586.9,0.0500,-21.57,-88.53
846,1678804.0,0.0500,-21.84,-89.41
847,1698243.7,0.0500,-22.04,-88.74
848,1717908.4,0.0500,-22.27,-89.60
849,1737800.8,0.0500,-22.37,-90.96
850,1757923.6,0.0500,-22.45,-90.49
851,1778279.4,0.0500,-22.41,-92.11
852,1798870.9,0.0500,-22.76,-90.17
853,1819700.9,0.0500,-22.87,-90.55
854,1840772.0,0.0500,-22.91,-90.56
855,1862087.1,0.0500,-23.21,-91.16
856,1883649.1,0.0500,-23.36,-91.73
857,1905460.7,0.0500,-23.47,-90.79
858,1927524.9,0.0500,-23.54,-90.78
859,1949844.6,0.0500,-23.81,-92.26
860,1972422.7,0.0500,-23.62,-91.88
861,1995262.3,0.0500,-23.59,-91.73
862,2018366.4,0.0500,-24.18,-91.72
863,2041737.9,0.0500,-24.15,-92.34
864,2065380.2,0.0500,-24.49,-93.01
865,2089296.1,0.0500,-24.59,-92.24
866,2113489.0,0.0500,-24.55,-92.83
867,2137962.1,0.0500,-24.59,-88.87
868,2162718.5,0.0500,-24.98,-93.56
869,2187761.6,0.0500,-25.31,-92.99
870,2213094.7,0.0500,-25.22,-90.71
871,2238721.1,0.0500,-25.42,-92.12
872,2264644.3,0.0500,-25.57,-94.37
873,2290867.7,0.0500,-25.98,-91.81
874,2317394.6,0.0500,-25.84,-93.19
875,2344228.8,0.0500,-26.21,-93.70
876,2371373.7,0.0500,-26.22,-94.20
877,2398832.9,0.0500,-26.62,-94.40
878,2426610.1,0.0500,-26.65,-93.80
879,2454708.9,0.0500,-26.94,-93.57
880,2483133.1,0.0500,-27.10,-94.57
881,2511886.4,0.0500,-27.34,-93.97
882,2540972.7,0.0500,-27.73,-94.26
883,2570395.8,0.0500,-28.00,-93.37
884,2600159.6,0.0500,-28.20,-93.21
885,2630268.0,0.0500,-28.21,-92.02
886,2660725.1,0.0500,-28.91,-92.11
887,2691534.8,0.0500,-29.40,-89.31
888,2722701.3,0.0500,-29.63,-88.63
889,2754228.7,0.0500,-29.67,-84.35
890,2786121.2,0.0500,-30.28,-79.20
891,2818382.9,0.0500,-30.51,-73.86
892,2851018.3,0.0500,-30.37,-65.19
893,2884031.5,0.0500,-29.75,-60.17
894,2917427.0,0.0500,-28.55,-55.96
895,2951209.2,0.0500,-27.88,-51.84
896,2985382.6,0.0500,-26.62,-58.87
897,3019951.7,0.0500,-25.38,-63.65
898,3054921.1,0.0500,-25.31,-66.49
899,3090295.4,0.0500,-25.17,-71.12
900,3126079.4,0.0500,-25.09,-75.23
901,3162277.7,0.0500,-25.30,-80.31
902,3198895.1,0.0500,-25.38,-82.31
903,3235936.6,0.0500,-25.76,-81.82
904,3273406.9,0.0500,-25.77,-86.65
905,3311311.2,0.0500,-26.40,-86.37
906,3349654.4,0.0500,-26.25,-88.52
907,3388441.6,0.0500,-26.25,-89.47
908,3427677.9,0.0500,-26.54,-90.36
909,3467368.5,0.0500,-26.91,-92.36
910,3507518.7,0.0500,-26.98,-93.22
911,3548133.9,0.0500,-27.05,-93.85
912,3589219.3,0.0500,-27.48,-93.82
913,3630780.5,0.0500,-27.67,-95.01
914,3672823.0,0.0500,-28.13,-101.00
915,3715352.3,0.0500,-27.85,-93.31
916,3758374.0,0.0500,-27.97,-97.10
917,3801894.0,0.0500,-28.08,-93.03
918,3845917.8,0.0500,-27.60,-101.22
919,3890451.4,0.0500,-28.19,-97.35
920,3935500.8,0.0500,-28.49,-96.54
921,3981071.7,0.0500,-28.64,-96.46
922,4027170.3,0.0500,-28.73,-96.72
923,4073802.8,0.0500,-28.57,-77.71
924,4120975.2,0.0500,-29.32,-97.58
925,4168693.8,0.0500,-29.79,-102.36
926,4216965.0,0.0500,-29.02,-102.46
927,4265795.2,0.0500,-29.52,-100.99
928,4315190.8,0.0500,-29.53,-99.07
929,4365158.3,0.0500,-29.90,-101.17
930,4415704.5,0.0500,-29.77,-99.80
931,4466835.9,0.0500,-29.78,-103.22
932,4518559.4,0.0500,-30.16,-102.42
933,4570881.9,0.0500,-30.22,-102.01
934,4623810.2,0.0500,-30.22,-103.68
935,4677351.4,0.0500,-30.28,-104.07
936,4731512.6,0.0500,-30.42,-101.39
937,4786300.9,0.0500,-31.17,-101.23
938,4841723.7,0.0500,-30.97,-102.42
939,4897788.2,0.0500,-31.29,-103.93
940,4954501.9,0.0500,-31.03,-100.68
941,5011872.3,0.0500,-33.61,-114.21
942,5069907.1,0.0500,-31.56,-102.52
943,5128613.8,0.0500,-31.21,-97.51
944,5188000.4,0.0500,-31.83,-104.63
945,5248074.6,0.0500,-31.83,-101.95
946,5308844.4,0.0500,-32.43,-102.84
947,5370318.0,0.0500,-32.15,-99.06
948,5432503.3,0.0500,-32.27,-98.31
949,5495408.7,0.0500,-32.25,-100.18
950,5559042.6,0.0500,-32.33,-100.16
951,5623413.3,0.0500,-32.02,-98.13
952,5688529.3,0.0500,-31.77,-97.97
953,5754399.4,0.0500,-32.07,-100.05
954,5821032.2,0.0500,-31.58,-102.58
955,5888436.6,0.0500,-32.05,-101.36
956,5956621.4,0.0500,-32.15,-103.38
957,6025595.9,0.0500,-32.15,-105.56
958,6095369.0,0.0500,-32.15,-104.70
959,6165950.0,0.0500,-32.46,-107.52
960,6237348.4,0.0500,-32.54,-107.87
961,6309573.4,0.0500,-32.77,-106.24
962,6382634.9,0.0500,-33.02,-106.52
963,6456542.3,0.0500,-31.82,-106.90
964,6531305.5,0.0500,-33.21,-107.58
965,6606934.5,0.0500,-33.60,-107.33
966,6683439.2,0.0500,-33.05,-109.42
967,6760829.8,0.0500,-33.52,-105.68
968,6839116.5,0.0500,-33.52,-108.78
969,6918309.7,0.0500,-33.10,-107.12
970,6998420.0,0.0500,-33.54,-107.94
971,7079457.8,0.0500,-33.14,-107.98
972,7161434.1,0.0500,-33.37,-110.49
973,7244359.6,0.0500,-33.80,-99.53
974,7328245.3,0.0500,-33.87,-110.32
975,7413102.4,0.0500,-33.90,-111.25
976,7498942.1,0.0500,-33.87,-111.54
977,7585775.8,0.0500,-34.26,-113.38
978,7673614.9,0.0500,-34.01,-114.63
979,7762471.2,0.0500,-34.03,-110.50
980,7852356.3,0.0500,-34.88,-113.65
981,7943282.3,0.0500,-32.57,-112.00
982,8035261.2,0.0500,-34.84,-113.76
983,8128305.2,0.0500,-33.61,-108.57
984,8222426.5,0.0500,-34.78,-115.21
985,8317637.7,0.0500,-34.87,-111.38
986,8413951.4,0.0500,-34.90,-115.54
987,8511380.4,0.0500,-35.62,-111.69
988,8609937.5,0.0500,-35.44,-116.62
989,8709635.9,0.0500,-36.29,-115.64
990,8810488.7,0.0500,-35.20,-111.33
991,8912509.4,0.0500,-36.48,-76.70
992,9015711.4,0.0500,-35.40,-116.73
993,9120108.4,0.0500,-35.44,-113.79
994,9225714.3,0.0500,-35.77,-117.61
995,9332543.0,0.0500,-36.90,-116.37
996,9440608.8,0.0500,-34.62,-118.42
997,9549925.9,0.0500,-36.47,-118.82
998,9660508.8,0.0500,-35.80,-121.21
999,9772372.2,0.0500,-36.63,-115.28
1000,9885530.9,0.0500,-36.12,-114.30
1001,10000000.0,0.0500,-36.25,-117.79
