#, Frequency (Hz), Amplitude (Vpp), Gain (dB), Phase (°)
1,100.0,0.0500,-0.10,-0.05
2,101.2,0.0500,-0.09,-0.08
3,102.3,0.0500,-0.08,-0.15
4,103.5,0.0500,-0.08,-0.07
5,104.7,0.0500,-0.09,-0.11
6,105.9,0.0500,-0.08,-0.10
7,107.2,0.0500,-0.08,-0.13
8,108.4,0.0500,-0.09,-0.11
9,109.6,0.0500,-0.08,-0.12
10,110.9,0.0500,-0.09,-0.11
11,112.2,0.0500,-0.09,-0.12
12,113.5,0.0500,-0.09,-0.18
13,114.8,0.0500,-0.09,-0.11
14,116.1,0.0500,-0.08,-0.12
15,117.5,0.0500,-0.09,-0.17
16,118.9,0.0500,-0.09,-0.16
17,120.2,0.0500,-0.09,-0.18
18,121.6,0.0500,-0.09,-0.17
19,123.0,0.0500,-0.09,-0.11
20,124.5,0.0500,-0.10,-0.17
21,125.9,0.0500,-0.10,-0.12
22,127.4,0.0500,-0.10,-0.18
23,128.8,0.0500,-0.09,-0.17
24,130.3,0.0500,-0.09,-0.18
25,131.8,0.0500,-0.09,-0.13
26,133.4,0.0500,-0.10,-0.16
27,134.9,0.0500,-0.09,-0.17
28,136.5,0.0500,-0.10,-0.17
29,138.0,0.0500,-0.10,-0.21
30,139.6,0.0500,-0.10,-0.17
31,141.3,0.0500,-0.10,-0.17
32,142.9,0.0500,-0.09,-0.17
33,144.5,0.0500,-0.10,-0.18
34,146.2,0.0500,-0.10,-0.14
35,147.9,0.0500,-0.10,-0.17
36,149.6,0.0500,-0.10,-0.17
37,151.4,0.0500,-0.10,-0.17
38,153.1,0.0500,-0.10,-0.17
39,154.9,0.0500,-0.10,-0.18
40,156.7,0.0500,-0.10,-0.18
41,158.5,0.0500,-0.10,-0.21
42,160.3,0.0500,-0.10,-0.18
43,162.2,0.0500,-0.10,-0.16
44,164.1,0.0500,-0.10,-0.21
45,166.0,0.0500,-0.10,-0.17
46,167.9,0.0500,-0.10,-0.19
47,169.8,0.0500,-0.11,-0.19
48,171.8,0.0500,-0.10,-0.23
49,173.8,0.0500,-0.09,-0.18
50,175.8,0.0500,-0.10,-0.23
51,177.8,0.0500,-0.10,-0.16
52,179.9,0.0500,-0.10,-0.22
53,182.0,0.0500,-0.10,-0.23
54,184.1,0.0500,-0.11,-0.19
55,186.2,0.0500,-0.10,-0.18
56,188.4,0.0500,-0.11,-0.17
57,190.5,0.0500,-0.10,-0.23
58,192.8,0.0500,-0.10,-0.18
59,195.0,0.0500,-0.10,-0.23
60,197.2,0.0500,-0.10,-0.23
61,199.5,0.0500,-0.10,-0.21
62,201.8,0.0500,-0.10,-0.17
63,204.2,0.0500,-0.11,-0.18
64,206.5,0.0500,-0.10,-0.18
65,208.9,0.0500,-0.11,-0.23
66,211.3,0.0500,-0.10,-0.23
67,213.8,0.0500,-0.10,-0.23
68,216.3,0.0500,-0.11,-0.23
69,218.8,0.0500,-0.10,-0.22
70,221.3,0.0500,-0.10,-0.18
71,223.9,0.0500,-0.11,-0.17
72,226.5,0.0500,-0.10,-0.22
73,229.1,0.0500,-0.11,-0.23
74,231.7,0.0500,-0.11,-0.19
75,234.4,0.0500,-0.10,-0.23
76,237.1,0.0500,-0.11,-0.24
77,239.9,0.0500,-0.10,-0.23
78,242.7,0.0500,-0.10,-0.21
79,245.5,0.0500,-0.11,-0.29
80,248.3,0.0500,-0.10,-0.29
81,251.2,0.0500,-0.11,-0.23
82,254.1,0.0500,-0.11,-0.29
83,257.0,0.0500,-0.11,-0.23
84,260.0,0.0500,-0.10,-0.25
85,263.0,0.0500,-0.11,-0.29
86,266.1,0.0500,-0.11,-0.23
87,269.2,0.0500,-0.10,-0.23
88,272.3,0.0500,-0.11,-0.23
89,275.4,0.0500,-0.10,-0.23
90,278.6,0.0500,-0.11,-0.27
91,281.8,0.0500,-0.11,-0.34
92,285.1,0.0500,-0.09,-0.29
93,288.4,0.0500,-0.09,-0.25
94,291.7,0.0500,-0.10,-0.29
95,295.1,0.0500,-0.10,-0.30
96,298.5,0.0500,-0.10,-0.29
97,302.0,0.0500,-0.10,-0.29
98,305.5,0.0500,-0.10,-0.29
99,309.0,0.0500,-0.11,-0.29
100,312.6,0.0500,-0.10,-0.34
101,316.2,0.0500,-0.09,-0.30
102,319.9,0.0500,-0.11,-0.34
103,323.6,0.0500,-0.11,-0.34
104,327.3,0.0500,-0.10,-0.35
105,331.1,0.0500,-0.10,-0.29
106,335.0,0.0500,-0.10,-0.29
107,338.8,0.0500,-0.10,-0.33
108,342.8,0.0500,-0.10,-0.29
109,346.7,0.0500,-0.11,-0.34
110,350.8,0.0500,-0.09,-0.34
111,354.8,0.0500,-0.11,-0.35
112,358.9,0.0500,-0.10,-0.35
113,363.1,0.0500,-0.10,-0.34
114,367.3,0.0500,-0.09,-0.35
115,371.5,0.0500,-0.10,-0.35
116,375.8,0.0500,-0.09,-0.39
117,380.2,0.0500,-0.11,-0.39
118,384.6,0.0500,-0.11,-0.35
119,389.0,0.0500,-0.10,-0.34
120,393.6,0.0500,-0.10,-0.35
121,398.1,0.0500,-0.10,-0.36
122,402.7,0.0500,-0.10,-0.35
123,407.4,0.0500,-0.10,-0.40
124,412.1,0.0500,-0.10,-0.40
125,416.9,0.0500,-0.10,-0.40
126,421.7,0.0500,-0.10,-0.44
127,426.6,0.0500,-0.11,-0.45
128,431.5,0.0500,-0.09,-0.40
129,436.5,0.0500,-0.10,-0.40
130,441.6,0.0500,-0.10,-0.41
131,446.7,0.0500,-0.10,-0.46
132,451.9,0.0500,-0.10,-0.41
133,457.1,0.0500,-0.10,-0.46
134,462.4,0.0500,-0.11,-0.45
135,467.7,0.0500,-0.10,-0.46
136,473.2,0.0500,-0.11,-0.46
137,478.6,0.0500,-0.11,-0.45
138,484.2,0.0500,-0.11,-0.46
139,489.8,0.0500,-0.10,-0.45
140,495.5,0.0500,-0.10,-0.46
141,501.2,0.0500,-0.10,-0.50
142,507.0,0.0500,-0.10,-0.52
143,512.9,0.0500,-0.10,-0.50
144,518.8,0.0500,-0.11,-0.46
145,524.8,0.0500,-0.11,-0.50
146,530.9,0.0500,-0.12,-0.52
147,537.0,0.0500,-0.11,-0.46
148,543.3,0.0500,-0.11,-0.48
149,549.5,0.0500,-0.11,-0.52
150,555.9,0.0500,-0.12,-0.53
151,562.3,0.0500,-0.12,-0.57
152,568.9,0.0500,-0.11,-0.57
153,575.4,0.0500,-0.11,-0.53
154,582.1,0.0500,-0.11,-0.52
155,588.8,0.0500,-0.10,-0.53
156,595.7,0.0500,-0.10,-0.57
157,602.6,0.0500,-0.10,-0.53
158,609.5,0.0500,-0.10,-0.57
159,616.6,0.0500,-0.10,-0.53
160,623.7,0.0500,-0.10,-0.57
161,631.0,0.0500,-0.11,-0.61
162,638.3,0.0500,-0.10,-0.63
163,645.7,0.0500,-0.11,-0.63
164,653.1,0.0500,-0.11,-0.61
165,660.7,0.0500,-0.11,-0.59
166,668.3,0.0500,-0.11,-0.63
167,676.1,0.0500,-0.11,-0.64
168,683.9,0.0500,-0.11,-0.63
169,691.8,0.0500,-0.11,-0.63
170,699.8,0.0500,-0.10,-0.64
171,707.9,0.0500,-0.10,-0.68
172,716.1,0.0500,-0.11,-0.63
173,724.4,0.0500,-0.11,-0.63
174,732.8,0.0500,-0.10,-0.68
175,741.3,0.0500,-0.11,-0.69
176,749.9,0.0500,-0.10,-0.69
177,758.6,0.0500,-0.10,-0.68
178,767.4,0.0500,-0.11,-0.69
179,776.2,0.0500,-0.10,-0.74
180,785.2,0.0500,-0.10,-0.75
181,794.3,0.0500,-0.10,-0.75
182,803.5,0.0500,-0.10,-0.75
183,812.8,0.0500,-0.10,-0.76
184,822.2,0.0500,-0.10,-0.75
185,831.8,0.0500,-0.10,-0.76
186,841.4,0.0500,-0.10,-0.80
187,851.1,0.0500,-0.10,-0.79
188,861.0,0.0500,-0.10,-0.80
189,871.0,0.0500,-0.10,-0.80
190,881.0,0.0500,-0.10,-0.82
191,891.3,0.0500,-0.10,-0.80
192,901.6,0.0500,-0.10,-0.86
193,912.0,0.0500,-0.10,-0.82
194,922.6,0.0500,-0.10,-0.92
195,933.3,0.0500,-0.10,-0.86
196,944.1,0.0500,-0.10,-0.86
197,955.0,0.0500,-0.10,-0.92
198,966.1,0.0500,-0.10,-0.91
199,977.2,0.0500,-0.10,-0.87
200,988.6,0.0500,-0.10,-0.92
201,1000.0,0.0500,-0.11,-0.93
202,1011.6,0.0500,-0.10,-0.92
203,1023.3,0.0500,-0.10,-0.96
204,1035.1,0.0500,-0.10,-0.93
205,1047.1,0.0500,-0.10,-0.97
206,1059.3,0.0500,-0.11,-0.94
207,1071.5,0.0500,-0.10,-0.98
208,1083.9,0.0500,-0.10,-1.02
209,1096.5,0.0500,-0.11,-0.98
210,1109.2,0.0500,-0.11,-1.04
211,1122.0,0.0500,-0.10,-1.02
212,1135.0,0.0500,-0.10,-1.09
213,1148.2,0.0500,-0.11,-1.03
214,1161.4,0.0500,-0.11,-1.09
215,1174.9,0.0500,-0.11,-1.09
216,1188.5,0.0500,-0.11,-1.13
217,1202.3,0.0500,-0.11,-1.14
218,1216.2,0.0500,-0.11,-1.14
219,1230.3,0.0500,-0.11,-1.14
220,1244.5,0.0500,-0.11,-1.14
221,1258.9,0.0500,-0.11,-1.14
222,1273.5,0.0500,-0.11,-1.14
223,1288.2,0.0500,-0.11,-1.20
224,1303.2,0.0500,-0.11,-1.21
225,1318.3,0.0500,-0.11,-1.25
226,1333.5,0.0500,-0.10,-1.24
227,1349.0,0.0500,-0.11,-1.26
228,1364.6,0.0500,-0.11,-1.26
229,1380.4,0.0500,-0.10,-1.26
230,1396.4,0.0500,-0.10,-1.28
231,1412.5,0.0500,-0.10,-1.30
232,1428.9,0.0500,-0.11,-1.32
233,1445.4,0.0500,-0.11,-1.34
234,1462.2,0.0500,-0.10,-1.37
235,1479.1,0.0500,-0.11,-1.37
236,1496.2,0.0500,-0.10,-1.33
237,1513.6,0.0500,-0.11,-1.37
238,1531.1,0.0500,-0.11,-1.42
239,1548.8,0.0500,-0.11,-1.43
240,1566.8,0.0500,-0.11,-1.47
241,1584.9,0.0500,-0.11,-1.49
242,1603.2,0.0500,-0.11,-1.48
243,1621.8,0.0500,-0.11,-1.49
244,1640.6,0.0500,-0.11,-1.53
245,1659.6,0.0500,-0.11,-1.49
246,1678.8,0.0500,-0.11,-1.55
247,1698.2,0.0500,-0.11,-1.54
248,1717.9,0.0500,-0.11,-1.59
249,1737.8,0.0500,-0.11,-1.60
250,1757.9,0.0500,-0.11,-1.60
251,1778.3,0.0500,-0.11,-1.66
252,1798.9,0.0500,-0.11,-1.66
253,1819.7,0.0500,-0.11,-1.66
254,1840.8,0.0500,-0.11,-1.66
255,1862.1,0.0500,-0.11,-1.70
256,1883.6,0.0500,-0.11,-1.78
257,1905.5,0.0500,-0.11,-1.72
258,1927.5,0.0500,-0.12,-1.79
259,1949.8,0.0500,-0.11,-1.78
260,1972.4,0.0500,-0.11,-1.79
261,1995.3,0.0500,-0.10,-1.78
262,2018.4,0.0500,-0.11,-1.87
263,2041.7,0.0500,-0.11,-1.89
264,2065.4,0.0500,-0.11,-1.94
265,2089.3,0.0500,-0.11,-1.89
266,2113.5,0.0500,-0.11,-1.95
267,2138.0,0.0500,-0.11,-1.95
268,2162.7,0.0500,-0.11,-2.01
269,2187.8,0.0500,-0.11,-2.01
270,2213.1,0.0500,-0.11,-2.05
271,2238.7,0.0500,-0.11,-2.02
272,2264.6,0.0500,-0.11,-2.07
273,2290.9,0.0500,-0.11,-2.12
274,2317.4,0.0500,-0.12,-2.12
275,2344.2,0.0500,-0.12,-2.16
276,2371.4,0.0500,-0.11,-2.18
277,2398.8,0.0500,-0.12,-2.18
278,2426.6,0.0500,-0.11,-2.24
279,2454.7,0.0500,-0.11,-2.24
280,2483.1,0.0500,-0.11,-2.30
281,2511.9,0.0500,-0.11,-2.31
282,2541.0,0.0500,-0.11,-2.35
283,2570.4,0.0500,-0.11,-2.35
284,2600.2,0.0500,-0.11,-2.39
285,2630.3,0.0500,-0.11,-2.41
286,2660.7,0.0500,-0.11,-2.41
287,2691.5,0.0500,-0.11,-2.47
288,2722.7,0.0500,-0.11,-2.52
289,2754.2,0.0500,-0.12,-2.53
290,2786.1,0.0500,-0.11,-2.52
291,2818.4,0.0500,-0.11,-2.62
292,2851.0,0.0500,-0.13,-2.58
293,2884.0,0.0500,-0.12,-2.64
294,2917.4,0.0500,-0.12,-2.64
295,2951.2,0.0500,-0.12,-2.69
296,2985.4,0.0500,-0.12,-2.75
297,3020.0,0.0500,-0.12,-2.75
298,3054.9,0.0500,-0.12,-2.81
299,3090.3,0.0500,-0.12,-2.81
300,3126.1,0.0500,-0.13,-2.87
301,3162.3,0.0500,-0.12,-2.91
302,3198.9,0.0500,-0.12,-2.92
303,3235.9,0.0500,-0.11,-2.98
304,3273.4,0.0500,-0.12,-2.98
305,3311.3,0.0500,-0.12,-3.03
306,3349.7,0.0500,-0.13,-3.03
307,3388.4,0.0500,-0.12,-3.10
308,3427.7,0.0500,-0.13,-3.15
309,3467.4,0.0500,-0.13,-3.15
310,3507.5,0.0500,-0.12,-3.21
311,3548.1,0.0500,-0.13,-3.21
312,3589.2,0.0500,-0.13,-3.26
313,3630.8,0.0500,-0.13,-3.32
314,3672.8,0.0500,-0.12,-3.34
315,3715.4,0.0500,-0.13,-3.38
316,3758.4,0.0500,-0.11,-3.44
317,3801.9,0.0500,-0.12,-3.48
318,3845.9,0.0500,-0.12,-3.53
319,3890.5,0.0500,-0.12,-3.56
320,3935.5,0.0500,-0.12,-3.56
321,3981.1,0.0500,-0.13,-3.65
322,4027.2,0.0500,-0.12,-3.67
323,4073.8,0.0500,-0.13,-3.71
324,4121.0,0.0500,-0.14,-3.76
325,4168.7,0.0500,-0.14,-3.83
326,4217.0,0.0500,-0.14,-3.83
327,4265.8,0.0500,-0.14,-3.90
328,4315.2,0.0500,-0.14,-3.89
329,4365.2,0.0500,-0.14,-3.96
330,4415.7,0.0500,-0.14,-4.01
331,4466.8,0.0500,-0.14,-4.07
332,4518.6,0.0500,-0.14,-4.12
333,4570.9,0.0500,-0.14,-4.19
334,4623.8,0.0500,-0.14,-4.17
335,4677.4,0.0500,-0.14,-4.24
336,4731.5,0.0500,-0.14,-4.30
337,4786.3,0.0500,-0.14,-4.36
338,4841.7,0.0500,-0.14,-4.42
339,4897.8,0.0500,-0.14,-4.43
340,4954.5,0.0500,-0.15,-4.53
341,5011.9,0.0500,-0.14,-4.53
342,5069.9,0.0500,-0.15,-4.59
343,5128.6,0.0500,-0.15,-4.65
344,5188.0,0.0500,-0.15,-4.69
345,5248.1,0.0500,-0.15,-4.76
346,5308.8,0.0500,-0.15,-4.81
347,5370.3,0.0500,-0.15,-4.85
348,5432.5,0.0500,-0.15,-4.92
349,5495.4,0.0500,-0.15,-4.98
350,5559.0,0.0500,-0.15,-5.04
351,5623.4,0.0500,-0.15,-5.10
352,5688.5,0.0500,-0.16,-5.16
353,5754.4,0.0500,-0.16,-5.19
354,5821.0,0.0500,-0.16,-5.27
355,5888.4,0.0500,-0.17,-5.31
356,5956.6,0.0500,-0.16,-5.38
357,6025.6,0.0500,-0.16,-5.44
358,6095.4,0.0500,-0.16,-5.55
359,6166.0,0.0500,-0.16,-5.60
360,6237.3,0.0500,-0.17,-5.64
361,6309.6,0.0500,-0.17,-5.72
362,6382.6,0.0500,-0.17,-5.79
363,6456.5,0.0500,-0.17,-5.84
364,6531.3,0.0500,-0.17,-5.90
365,6606.9,0.0500,-0.17,-5.97
366,6683.4,0.0500,-0.17,-6.06
367,6760.8,0.0500,-0.17,-6.12
368,6839.1,0.0500,-0.17,-6.18
369,6918.3,0.0500,-0.17,-6.25
370,6998.4,0.0500,-0.17,-6.31
371,7079.5,0.0500,-0.17,-6.42
372,7161.4,0.0500,-0.17,-6.42
373,7244.4,0.0500,-0.17,-6.53
374,7328.2,0.0500,-0.18,-6.59
375,7413.1,0.0500,-0.18,-6.70
376,7498.9,0.0500,-0.19,-6.80
377,7585.8,0.0500,-0.18,-6.87
378,7673.6,0.0500,-0.19,-6.93
379,7762.5,0.0500,-0.18,-7.04
380,7852.4,0.0500,-0.19,-7.09
381,7943.3,0.0500,-0.19,-7.15
382,8035.3,0.0500,-0.19,-7.26
383,8128.3,0.0500,-0.19,-7.31
384,8222.4,0.0500,-0.19,-7.39
385,8317.6,0.0500,-0.19,-7.49
386,8414.0,0.0500,-0.19,-7.56
387,8511.4,0.0500,-0.19,-7.62
388,8609.9,0.0500,-0.21,-7.73
389,8709.6,0.0500,-0.21,-7.86
390,8810.5,0.0500,-0.21,-7.95
391,8912.5,0.0500,-0.21,-8.01
392,9015.7,0.0500,-0.21,-8.07
393,9120.1,0.0500,-0.21,-8.19
394,9225.7,0.0500,-0.22,-8.27
395,9332.5,0.0500,-0.22,-8.38
396,9440.6,0.0500,-0.22,-8.50
397,9549.9,0.0500,-0.22,-8.54
398,9660.5,0.0500,-0.22,-8.65
399,9772.4,0.0500,-0.23,-8.76
400,9885.5,0.0500,-0.23,-8.84
401,10000.0,0.0500,-0.23,-8.94
402,10115.8,0.0500,-0.23,-9.05
403,10232.9,0.0500,-0.23,-9.15
404,10351.4,0.0500,-0.23,-9.24
405,10471.3,0.0500,-0.24,-9.34
406,10592.5,0.0500,-0.24,-9.45
407,10715.2,0.0500,-0.24,-9.55
408,10839.3,0.0500,-0.25,-9.68
409,10964.8,0.0500,-0.26,-9.80
410,11091.7,0.0500,-0.26,-9.85
411,11220.2,0.0500,-0.26,-10.02
412,11350.1,0.0500,-0.26,-10.13
413,11481.5,0.0500,-0.28,-10.20
414,11614.5,0.0500,-0.28,-10.36
415,11749.0,0.0500,-0.28,-10.47
416,11885.0,0.0500,-0.28,-10.64
417,12022.6,0.0500,-0.29,-10.70
418,12161.9,0.0500,-0.29,-10.87
419,12302.7,0.0500,-0.30,-10.94
420,12445.1,0.0500,-0.30,-11.10
421,12589.3,0.0500,-0.30,-11.16
422,12735.0,0.0500,-0.30,-11.27
423,12882.5,0.0500,-0.30,-11.44
424,13031.7,0.0500,-0.30,-11.57
425,13182.6,0.0500,-0.31,-11.67
426,13335.2,0.0500,-0.31,-11.81
427,13489.6,0.0500,-0.31,-11.98
428,13645.8,0.0500,-0.33,-12.08
429,13803.8,0.0500,-0.33,-12.21
430,13963.7,0.0500,-0.33,-12.36
431,14125.4,0.0500,-0.34,-12.49
432,14288.9,0.0500,-0.34,-12.66
433,14454.4,0.0500,-0.35,-12.82
434,14621.8,0.0500,-0.35,-12.94
435,14791.1,0.0500,-0.35,-13.05
436,14962.4,0.0500,-0.37,-13.17
437,15135.6,0.0500,-0.37,-13.35
438,15310.9,0.0500,-0.38,-13.51
439,15488.2,0.0500,-0.39,-13.63
440,15667.5,0.0500,-0.39,-13.81
441,15848.9,0.0500,-0.39,-13.91
442,16032.5,0.0500,-0.41,-14.14
443,16218.1,0.0500,-0.41,-14.22
444,16405.9,0.0500,-0.42,-14.42
445,16595.9,0.0500,-0.43,-14.60
446,16788.0,0.0500,-0.43,-14.72
447,16982.4,0.0500,-0.44,-14.90
448,17179.1,0.0500,-0.44,-15.06
449,17378.0,0.0500,-0.45,-15.23
450,17579.2,0.0500,-0.47,-15.34
451,17782.8,0.0500,-0.47,-15.52
452,17988.7,0.0500,-0.48,-15.68
453,18197.0,0.0500,-0.48,-15.86
454,18407.7,0.0500,-0.48,-16.03
455,18620.9,0.0500,-0.49,-16.20
456,18836.5,0.0500,-0.50,-16.39
457,19054.6,0.0500,-0.50,-16.55
458,19275.2,0.0500,-0.51,-16.72
459,19498.4,0.0500,-0.53,-16.95
460,19724.2,0.0500,-0.54,-17.12
461,19952.6,0.0500,-0.54,-17.29
462,20183.7,0.0500,-0.54,-17.52
463,20417.4,0.0500,-0.56,-17.67
464,20653.8,0.0500,-0.57,-17.86
465,20893.0,0.0500,-0.59,-18.03
466,21134.9,0.0500,-0.60,-18.21
467,21379.6,0.0500,-0.61,-18.45
468,21627.2,0.0500,-0.61,-18.62
469,21877.6,0.0500,-0.62,-18.84
470,22130.9,0.0500,-0.63,-19.02
471,22387.2,0.0500,-0.64,-19.21
472,22646.4,0.0500,-0.66,-19.46
473,22908.7,0.0500,-0.67,-19.65
474,23173.9,0.0500,-0.68,-19.83
475,23442.3,0.0500,-0.69,-20.04
476,23713.7,0.0500,-0.70,-20.26
477,23988.3,0.0500,-0.71,-20.46
478,24266.1,0.0500,-0.74,-20.67
479,24547.1,0.0500,-0.75,-20.89
480,24831.3,0.0500,-0.75,-21.13
481,25118.9,0.0500,-0.77,-21.35
482,25409.7,0.0500,-0.77,-21.54
483,25704.0,0.0500,-0.80,-21.80
484,26001.6,0.0500,-0.81,-22.04
485,26302.7,0.0500,-0.82,-22.26
486,26607.3,0.0500,-0.84,-22.45
487,26915.3,0.0500,-0.86,-22.67
488,27227.0,0.0500,-0.86,-22.94
489,27542.3,0.0500,-0.88,-23.19
490,27861.2,0.0500,-0.90,-23.40
491,28183.8,0.0500,-0.92,-23.63
492,28510.2,0.0500,-0.94,-23.92
493,28840.3,0.0500,-0.95,-24.11
494,29174.3,0.0500,-0.97,-24.34
495,29512.1,0.0500,-0.99,-24.63
496,29853.8,0.0500,-1.01,-24.80
497,30199.5,0.0500,-1.02,-25.08
498,30549.2,0.0500,-1.03,-25.35
499,30903.0,0.0500,-1.05,-25.63
500,31260.8,0.0500,-1.08,-25.87
501,31622.8,0.0500,-1.09,-26.11
502,31989.0,0.0500,-1.11,-26.36
503,32359.4,0.0500,-1.13,-26.63
504,32734.1,0.0500,-1.15,-26.91
505,33113.1,0.0500,-1.18,-27.13
506,33496.5,0.0500,-1.19,-27.49
507,33884.4,0.0500,-1.23,-27.66
508,34276.8,0.0500,-1.24,-27.99
509,34673.7,0.0500,-1.26,-28.25
510,35075.2,0.0500,-1.29,-28.52
511,35481.3,0.0500,-1.31,-28.76
512,35892.2,0.0500,-1.33,-29.03
513,36307.8,0.0500,-1.36,-29.32
514,36728.2,0.0500,-1.38,-29.56
515,37153.5,0.0500,-1.41,-29.90
516,37583.7,0.0500,-1.43,-30.18
517,38018.9,0.0500,-1.45,-30.41
518,38459.2,0.0500,-1.48,-30.76
519,38904.5,0.0500,-1.50,-31.03
520,39355.0,0.0500,-1.53,-31.30
521,39810.7,0.0500,-1.56,-31.65
522,40271.7,0.0500,-1.59,-31.94
523,40738.0,0.0500,-1.62,-32.17
524,41209.8,0.0500,-1.64,-32.51
525,41686.9,0.0500,-1.68,-32.75
526,42169.7,0.0500,-1.70,-33.11
527,42658.0,0.0500,-1.74,-33.37
528,43151.9,0.0500,-1.76,-33.67
529,43651.6,0.0500,-1.80,-33.96
530,44157.0,0.0500,-1.83,-34.30
531,44668.4,0.0500,-1.87,-34.63
532,45185.6,0.0500,-1.88,-34.88
533,45708.8,0.0500,-1.91,-35.12
534,46238.1,0.0500,-1.97,-35.57
535,46773.5,0.0500,-1.99,-35.80
536,47315.1,0.0500,-2.02,-36.16
537,47863.0,0.0500,-2.05,-36.45
538,48417.2,0.0500,-2.09,-36.70
539,48977.9,0.0500,-2.13,-37.01
540,49545.0,0.0500,-2.17,-37.39
541,50118.7,0.0500,-2.20,-37.61
542,50699.1,0.0500,-2.25,-37.93
543,51286.1,0.0500,-2.26,-38.26
544,51880.0,0.0500,-2.33,-38.66
545,52480.7,0.0500,-2.36,-38.89
546,53088.4,0.0500,-2.40,-39.23
547,53703.2,0.0500,-2.44,-39.69
548,54325.0,0.0500,-2.49,-39.95
549,54954.1,0.0500,-2.52,-40.28
550,55590.4,0.0500,-2.56,-40.55
551,56234.1,0.0500,-2.61,-40.89
552,56885.3,0.0500,-2.66,-41.31
553,57544.0,0.0500,-2.69,-41.52
554,58210.3,0.0500,-2.73,-41.87
555,58884.4,0.0500,-2.77,-42.30
556,59566.2,0.0500,-2.82,-42.46
557,60256.0,0.0500,-2.87,-42.84
558,60953.7,0.0500,-2.91,-43.06
559,61659.5,0.0500,-2.97,-43.52
560,62373.5,0.0500,-3.01,-43.80
561,63095.7,0.0500,-3.06,-44.20
562,63826.3,0.0500,-3.10,-44.43
563,64565.4,0.0500,-3.16,-44.72
564,65313.1,0.0500,-3.19,-45.14
565,66069.3,0.0500,-3.23,-45.54
566,66834.4,0.0500,-3.29,-45.82
567,67608.3,0.0500,-3.34,-46.12
568,68391.2,0.0500,-3.40,-46.41
569,69183.1,0.0500,-3.44,-46.76
570,69984.2,0.0500,-3.49,-47.24
571,70794.6,0.0500,-3.57,-47.66
572,71614.3,0.0500,-3.62,-47.75
573,72443.6,0.0500,-3.65,-47.95
574,73282.5,0.0500,-3.73,-48.45
575,74131.0,0.0500,-3.80,-48.78
576,74989.4,0.0500,-3.85,-49.10
577,75857.8,0.0500,-3.89,-49.51
578,76736.1,0.0500,-3.95,-49.94
579,77624.7,0.0500,-4.01,-50.02
580,78523.6,0.0500,-4.07,-50.23
581,79432.8,0.0500,-4.13,-50.81
582,80352.6,0.0500,-4.18,-51.03
583,81283.1,0.0500,-4.25,-51.37
584,82224.3,0.0500,-4.33,-51.79
585,83176.4,0.0500,-4.38,-52.11
586,84139.5,0.0500,-4.43,-52.32
587,85113.8,0.0500,-4.50,-52.68
588,86099.4,0.0500,-4.55,-53.07
589,87096.4,0.0500,-4.63,-53.41
590,88104.9,0.0500,-4.68,-53.56
591,89125.1,0.0500,-4.72,-54.02
592,90157.1,0.0500,-4.82,-54.26
593,91201.1,0.0500,-4.90,-54.65
594,92257.1,0.0500,-4.97,-55.06
595,93325.4,0.0500,-5.03,-55.22
596,94406.1,0.0500,-5.10,-55.64
597,95499.3,0.0500,-5.17,-56.18
598,96605.1,0.0500,-5.24,-56.22
599,97723.7,0.0500,-5.31,-56.55
600,98855.3,0.0500,-5.39,-56.73
601,100000.0,0.0500,-5.45,-57.27
602,101157.9,0.0500,-5.51,-57.33
603,102329.3,0.0500,-5.60,-57.45
604,103514.2,0.0500,-5.68,-58.15
605,104712.9,0.0500,-5.72,-58.33
606,105925.4,0.0500,-5.80,-58.63
607,107151.9,0.0500,-5.89,-59.06
608,108392.7,0.0500,-5.98,-59.34
609,109647.8,0.0500,-5.98,-59.46
610,110917.5,0.0500,-6.14,-59.87
611,112201.8,0.0500,-6.15,-60.30
612,113501.1,0.0500,-6.16,-60.51
613,114815.4,0.0500,-6.32,-60.78
614,116144.9,0.0500,-6.38,-60.91
615,117489.8,0.0500,-6.48,-61.28
616,118850.2,0.0500,-6.54,-61.67
617,120226.4,0.0500,-6.63,-61.66
618,121618.6,0.0500,-6.78,-62.15
619,123026.9,0.0500,-6.78,-62.47
620,124451.5,0.0500,-6.86,-62.78
621,125892.5,0.0500,-6.92,-62.98
622,127350.3,0.0500,-7.01,-63.36
623,128825.0,0.0500,-7.09,-63.53
624,130316.7,0.0500,-7.19,-63.30
625,131825.7,0.0500,-7.20,-64.40
626,133352.1,0.0500,-7.27,-64.05
627,134896.3,0.0500,-7.44,-64.69
628,136458.3,0.0500,-7.60,-65.00
629,138038.4,0.0500,-7.62,-64.85
630,139636.8,0.0500,-7.66,-65.25
631,141253.8,0.0500,-7.69,-65.79
632,142889.4,0.0500,-7.89,-65.74
633,144544.0,0.0500,-7.90,-66.05
634,146217.7,0.0500,-7.81,-67.05
635,147910.8,0.0500,-8.18,-66.08
636,149623.6,0.0500,-8.29,-67.38
637,151356.1,0.0500,-8.26,-66.53
638,153108.7,0.0500,-8.31,-66.68
639,154881.7,0.0500,-8.55,-67.57
640,156675.1,0.0500,-8.49,-68.39
641,158489.3,0.0500,-8.45,-68.22
642,160324.5,0.0500,-8.68,-68.52
643,162181.0,0.0500,-9.31,-66.46
644,164059.0,0.0500,-8.39,-69.30
645,165958.7,0.0500,-8.96,-69.09
646,167880.4,0.0500,-9.02,-69.26
647,169824.4,0.0500,-8.91,-70.18
648,171790.8,0.0500,-9.25,-70.07
649,173780.1,0.0500,-9.42,-70.43
650,175792.4,0.0500,-9.29,-70.25
651,177827.9,0.0500,-9.48,-70.86
652,179887.1,0.0500,-9.58,-70.99
653,181970.1,0.0500,-9.66,-70.88
654,184077.2,0.0500,-9.79,-71.24
655,186208.7,0.0500,-10.59,-75.50
656,188364.9,0.0500,-10.27,-72.10
657,190546.1,0.0500,-10.01,-71.72
658,192752.5,0.0500,-10.19,-72.37
659,194984.5,0.0500,-10.72,-68.49
660,197242.3,0.0500,-10.53,-73.04
661,199526.2,0.0500,-10.42,-73.87
662,201836.6,0.0500,-10.58,-72.99
663,204173.8,0.0500,-10.79,-71.57
664,206538.0,0.0500,-10.16,-72.49
665,208929.6,0.0500,-10.86,-73.67
666,211348.9,0.0500,-11.05,-74.51
667,213796.2,0.0500,-11.14,-74.52
668,216271.9,0.0500,-10.47,-73.29
669,218776.2,0.0500,-11.23,-74.45
670,221309.5,0.0500,-10.88,-69.45
671,223872.1,0.0500,-11.48,-73.19
672,226464.4,0.0500,-11.66,-74.45
673,229086.8,0.0500,-11.62,-74.73
674,231739.5,0.0500,-11.27,-75.15
675,234422.9,0.0500,-11.96,-76.13
676,237137.4,0.0500,-11.85,-75.91
677,239883.3,0.0500,-12.21,-77.95
678,242661.0,0.0500,-12.26,-76.43
679,245470.9,0.0500,-12.50,-79.68
680,248313.3,0.0500,-12.24,-76.23
681,251188.6,0.0500,-12.72,-75.41
682,254097.3,0.0500,-12.57,-76.13
683,257039.6,0.0500,-13.92,-79.63
684,260016.0,0.0500,-12.77,-76.93
685,263026.8,0.0500,-12.88,-76.99
686,266072.5,0.0500,-12.96,-77.60
687,269153.5,0.0500,-13.12,-78.17
688,272270.1,0.0500,-13.25,-77.91
689,275422.9,0.0500,-13.36,-77.92
690,278612.1,0.0500,-13.46,-78.46
691,281838.3,0.0500,-13.55,-78.92
692,285101.8,0.0500,-13.70,-78.95
693,288403.2,0.0500,-13.83,-79.18
694,291742.7,0.0500,-14.00,-78.54
695,295120.9,0.0500,-13.97,-79.36
696,298538.3,0.0500,-14.20,-79.40
697,301995.2,0.0500,-14.30,-82.95
698,305492.1,0.0500,-14.61,-78.60
699,309029.5,0.0500,-14.53,-80.28
700,312607.9,0.0500,-14.39,-80.41
701,316227.8,0.0500,-14.52,-78.90
702,319889.5,0.0500,-14.84,-80.38
703,323593.7,0.0500,-14.50,-81.27
704,327340.7,0.0500,-15.15,-80.48
705,331131.1,0.0500,-15.64,-84.15
706,334965.4,0.0500,-14.97,-80.76
707,338844.2,0.0500,-15.59,-80.81
708,342767.8,0.0500,-15.67,-80.36
709,346736.9,0.0500,-15.82,-80.95
710,350751.9,0.0500,-16.52,-80.20
711,354813.4,0.0500,-16.14,-81.22
712,358921.9,0.0500,-16.66,-84.48
713,363078.1,0.0500,-16.71,-83.35
714,367282.3,0.0500,-16.57,-81.45
715,371535.2,0.0500,-16.62,-82.43
716,375837.4,0.0500,-16.88,-81.48
717,380189.4,0.0500,-17.11,-77.22
718,384591.8,0.0500,-17.46,-79.42
719,389045.1,0.0500,-17.36,-82.46
720,393550.1,0.0500,-17.65,-81.21
721,398107.2,0.0500,-18.60,-79.83
722,402717.0,0.0500,-18.08,-81.07
723,407380.3,0.0500,-18.15,-81.38
724,412097.5,0.0500,-18.48,-81.05
725,416869.4,0.0500,-18.46,-82.19
726,421696.5,0.0500,-19.02,-85.74
727,426579.5,0.0500,-19.06,-79.27
728,431519.1,0.0500,-18.22,-78.55
729,436515.8,0.0500,-19.36,-79.76
730,441570.4,0.0500,-18.61,-75.77
731,446683.6,0.0500,-20.26,-76.14
732,451855.9,0.0500,-20.43,-78.15
733,457088.2,0.0500,-20.80,-73.89
734,462381.0,0.0500,-21.17,-75.02
735,467735.1,0.0500,-21.25,-70.04
736,473151.3,0.0500,-21.63,-69.12
737,478630.1,0.0500,-22.78,-66.29
738,484172.4,0.0500,-21.98,-60.32
739,489778.8,0.0500,-22.30,-55.15
740,495450.2,0.0500,-21.18,-45.46
741,501187.2,0.0500,-20.95,-47.23
742,506990.7,0.0500,-21.68,-24.52
743,512861.4,0.0500,-20.88,-38.17
744,518800.0,0.0500,-20.07,-34.83
745,524807.5,0.0500,-19.54,-33.79
746,530884.4,0.0500,-18.39,-31.95
747,537031.8,0.0500,-17.49,-32.60
748,543250.3,0.0500,-16.79,-35.09
749,549540.9,0.0500,-16.22,-36.93
750,555904.3,0.0500,-15.95,-41.09
751,562341.3,0.0500,-15.37,-46.84
752,568852.9,0.0500,-15.01,-50.55
753,575439.9,0.0500,-14.93,-54.83
754,582103.2,0.0500,-15.28,-57.76
755,588843.7,0.0500,-15.02,-60.20
756,595662.1,0.0500,-15.36,-64.50
757,602559.6,0.0500,-15.40,-65.62
758,609536.9,0.0500,-15.69,-67.77
759,616595.0,0.0500,-15.78,-70.05
760,623734.8,0.0500,-16.36,-71.31
761,630957.3,0.0500,-16.15,-72.19
762,638263.5,0.0500,-16.39,-75.99
763,645654.2,0.0500,-16.43,-74.44
764,653130.6,0.0500,-17.03,-78.39
765,660693.4,0.0500,-17.18,-77.19
766,668343.9,0.0500,-16.58,-79.90
767,676083.0,0.0500,-17.28,-78.92
768,683911.6,0.0500,-17.53,-81.50
769,691831.0,0.0500,-18.10,-82.75
770,699842.0,0.0500,-17.62,-92.83
771,707945.8,0.0500,-18.26,-84.39
772,716143.4,0.0500,-18.45,-81.56
773,724436.0,0.0500,-18.88,-86.99
774,732824.5,0.0500,-18.73,-83.60
775,741310.2,0.0500,-18.80,-85.72
776,749894.2,0.0500,-19.30,-85.77
777,758577.6,0.0500,-18.28,-82.64
778,767361.5,0.0500,-19.69,-84.47
779,776247.1,0.0500,-18.95,-87.41
780,785235.6,0.0500,-20.40,-86.60
781,794328.2,0.0500,-19.87,-85.67
782,803526.1,0.0500,-20.06,-87.36
783,812830.5,0.0500,-20.13,-88.89
784,822242.6,0.0500,-20.37,-89.12
785,831763.8,0.0500,-19.40,-78.97
786,841395.1,0.0500,-20.35,-86.17
787,851138.0,0.0500,-21.23,-86.83
788,860993.8,0.0500,-18.72,-81.65
789,870963.6,0.0500,-22.33,-78.81
790,881048.9,0.0500,-22.84,-89.20
791,891250.9,0.0500,-21.67,-84.91
792,901571.1,0.0500,-22.01,-87.64
793,912010.8,0.0500,-21.51,-84.19
794,922571.4,0.0500,-22.67,-90.06
795,933254.3,0.0500,-23.30,-83.10
796,944060.9,0.0500,-22.42,-81.83
797,954992.6,0.0500,-22.69,-76.15
798,966050.9,0.0500,-22.35,-84.14
799,977237.2,0.0500,-21.88,-72.92
800,988553.1,0.0500,-21.61,-75.87
801,1000000.0,0.0500,-22.53,-76.29
802,1011579.5,0.0500,-22.41,-80.58
803,1023293.0,0.0500,-22.69,-82.72
804,1035142.2,0.0500,-21.82,-75.96
805,1047128.5,0.0500,-22.11,-78.01
806,1059253.7,0.0500,-22.79,-77.81
807,1071519.3,0.0500,-22.02,-82.97
808,1083926.9,0.0500,-22.02,-78.53
809,1096478.2,0.0500,-21.81,-80.02
810,1109174.8,0.0500,-23.72,-93.81
811,1122018.5,0.0500,-23.37,-93.12
812,1135010.8,0.0500,-22.19,-86.57
813,1148153.6,0.0500,-22.02,-91.66
814,1161448.6,0.0500,-23.52,-82.98
815,1174897.6,0.0500,-23.22,-90.56
816,1188502.2,0.0500,-22.89,-89.84
817,1202264.4,0.0500,-24.00,-97.26
818,1216186.0,0.0500,-22.32,-89.77
819,1230268.8,0.0500,-23.15,-83.50
820,1244514.6,0.0500,-23.62,-88.03
821,1258925.4,0.0500,-22.66,-94.48
822,1273503.1,0.0500,-23.25,-88.36
823,1288249.6,0.0500,-24.03,-97.80
824,1303166.8,0.0500,-23.32,-94.25
825,1318256.7,0.0500,-23.62,-97.19
826,1333521.4,0.0500,-20.85,-88.47
827,1348962.9,0.0500,-24.77,-106.03
828,1364583.1,0.0500,-24.80,-91.56
829,1380384.3,0.0500,-23.85,-99.11
830,1396368.4,0.0500,-23.87,-99.02
831,1412537.5,0.0500,-25.11,-103.76
832,1428894.0,0.0500,-25.37,-110.87
833,1445439.8,0.0500,-25.51,-97.92
834,1462177.2,0.0500,-23.40,-97.67
835,1479108.4,0.0500,-25.26,-98.98
836,1496235.7,0.0500,-25.58,-100.57
837,1513561.2,0.0500,-25.75,-102.66
838,1531087.5,0.0500,-27.17,-100.83
839,1548816.6,0.0500,-27.88,-106.39
840,1566751.1,0.0500,-26.20,-103.08
841,1584893.2,0.0500,-26.29,-107.26
842,1603245.4,0.0500,-27.06,-103.93
843,1621810.1,0.0500,-28.29,-103.10
844,1640589.8,0.0500,-26.89,-105.58
845,1659586.9,0.0500,-27.42,-102.79
846,1678804.0,0.0500,-27.10,-95.94
847,1698243.7,0.0500,-28.04,-123.24
848,1717908.4,0.0500,-27.56,-95.25
849,1737800.8,0.0500,-28.46,-114.34
850,1757923.6,0.0500,-28.47,-112.11
851,1778279.4,0.0500,-28.99,-110.55
852,1798870.9,0.0500,-29.58,-116.48
853,1819700.9,0.0500,-30.19,-68.31
854,1840772.0,0.0500,-29.61,-107.80
855,1862087.1,0.0500,-30.72,-130.74
856,1883649.1,0.0500,-33.64,-116.93
857,1905460.7,0.0500,-32.46,-100.07
858,1927524.9,0.0500,-32.11,-121.86
859,1949844.6,0.0500,-31.55,-98.51
860,1972422.7,0.0500,-36.28,-120.89
861,1995262.3,0.0500,-35.91,-130.03
862,2018366.4,0.0500,-39.16,-169.19
863,2041737.9,0.0500,-35.36,94.68
864,2065380.2,0.0500,-49.56,-89.74
865,2089296.1,0.0500,-37.13,83.12
866,2113489.0,0.0500,-38.52,18.67
867,2137962.1,0.0500,-32.33,-1.10
868,2162718.5,0.0500,-36.35,-55.68
869,2187761.6,0.0500,-28.13,-27.54
870,2213094.7,0.0500,-24.58,-31.89
871,2238721.1,0.0500,-28.25,-39.50
872,2264644.3,0.0500,-27.84,-44.95
873,2290867.7,0.0500,-29.09,-64.23
874,2317394.6,0.0500,-26.36,-64.72
875,2344228.8,0.0500,-26.86,-73.71
876,2371373.7,0.0500,-21.84,-63.34
877,2398832.9,0.0500,-28.94,-80.74
878,2426610.1,0.0500,-28.40,-77.78
879,2454708.9,0.0500,-21.57,-79.55
880,2483133.1,0.0500,-27.75,-69.56
881,2511886.4,0.0500,-32.24,-87.51
882,2540972.7,0.0500,-28.79,-57.92
883,2570395.8,0.0500,-35.74,-112.27
884,2600159.6,0.0500,-29.74,-92.44
885,2630268.0,0.0500,-33.52,-117.93
886,2660725.1,0.0500,-36.00,186.67
887,2691534.8,0.0500,-38.45,-8.43
888,2722701.3,0.0500,-31.35,-86.54
889,2754228.7,0.0500,-47.71,-69.13
890,2786121.2,0.0500,-37.51,168.27
891,2818382.9,0.0500,-33.49,-87.48
892,2851018.3,0.0500,-36.01,-162.59
893,2884031.5,0.0500,-39.02,-160.33
894,2917427.0,0.0500,-36.37,-107.70
895,2951209.2,0.0500,-46.59,-138.23
896,2985382.6,0.0500,-30.16,-55.37
897,3019951.7,0.0500,-32.14,36.03
898,3054921.1,0.0500,-48.33,12.28
899,3090295.4,0.0500,-32.38,-116.36
900,3126079.4,0.0500,-32.03,14.04
901,3162277.7,0.0500,-33.21,-27.29
902,3198895.1,0.0500,-24.62,-43.45
903,3235936.6,0.0500,-31.80,-69.07
904,3273406.9,0.0500,-29.27,-33.82
905,3311311.2,0.0500,-26.30,-76.96
906,3349654.4,0.0500,-30.92,-53.22
907,3388441.6,0.0500,-28.81,-40.47
908,3427677.9,0.0500,-32.04,-48.50
909,3467368.5,0.0500,-31.54,-50.01
910,3507518.7,0.0500,-31.49,-63.05
911,3548133.9,0.0500,-27.07,-72.86
912,3589219.3,0.0500,-27.02,-60.03
913,3630780.5,0.0500,-31.16,-117.91
914,3672823.0,0.0500,-26.53,-121.77
915,3715352.3,0.0500,-37.91,-8.95
916,3758374.0,0.0500,-33.24,-89.88
917,3801894.0,0.0500,-32.92,-66.91
918,3845917.8,0.0500,-30.98,-65.90
919,3890451.4,0.0500,-31.69,-64.90
920,3935500.8,0.0500,-36.23,-65.94
921,3981071.7,0.0500,-32.75,-72.42
922,4027170.3,0.0500,-30.95,-40.11
923,4073802.8,0.0500,-27.89,-68.82
924,4120975.2,0.0500,-28.51,-48.84
925,4168693.8,0.0500,-28.10,-92.77
926,4216965.0,0.0500,-34.17,-32.71
927,4265795.2,0.0500,-26.37,-46.32
928,4315190.8,0.0500,-25.75,-111.83
929,4365158.3,0.0500,-29.21,-94.41
930,4415704.5,0.0500,-32.19,-109.43
931,4466835.9,0.0500,-31.13,-71.26
932,4518559.4,0.0500,-29.38,-76.37
933,4570881.9,0.0500,-34.95,-59.48
934,4623810.2,0.0500,-34.31,-64.88
935,4677351.4,0.0500,-33.61,-79.76
936,4731512.6,0.0500,-36.63,-102.77
937,4786300.9,0.0500,-33.54,-85.62
938,4841723.7,0.0500,-36.75,-86.38
939,4897788.2,0.0500,-34.14,-77.84
940,4954501.9,0.0500,-30.30,-87.52
941,5011872.3,0.0500,-40.28,-93.53
942,5069907.1,0.0500,-31.95,-113.06
943,5128613.8,0.0500,-37.97,-75.69
944,5188000.4,0.0500,-38.81,-127.38
945,5248074.6,0.0500,-33.67,-109.66
946,5308844.4,0.0500,-36.63,-134.45
947,5370318.0,0.0500,-31.10,-121.76
948,5432503.3,0.0500,-33.75,-72.59
949,5495408.7,0.0500,-37.31,-44.79
950,5559042.6,0.0500,-36.14,-86.71
951,5623413.3,0.0500,-37.21,-141.48
952,5688529.3,0.0500,-33.06,-110.59
953,5754399.4,0.0500,-38.23,-63.86
954,5821032.2,0.0500,-34.88,-99.73
955,5888436.6,0.0500,-41.69,-67.65
956,5956621.4,0.0500,-22.98,-143.42
957,6025595.9,0.0500,-32.02,-91.04
958,6095369.0,0.0500,-42.15,-54.77
959,6165950.0,0.0500,-31.33,-101.57
960,6237348.4,0.0500,-29.00,-97.29
961,6309573.4,0.0500,-32.13,-100.18
962,6382634.9,0.0500,-42.31,-39.28
963,6456542.3,0.0500,-47.33,-17.92
964,6531305.5,0.0500,-35.04,-11.79
965,6606934.5,0.0500,-37.41,-113.96
966,6683439.2,0.0500,-41.34,-160.99
967,6760829.8,0.0500,-35.94,-135.56
968,6839116.5,0.0500,-28.19,-88.09
969,6918309.7,0.0500,-36.68,-107.36
970,6998420.0,0.0500,-32.33,-84.31
971,7079457.8,0.0500,-43.76,-34.11
972,7161434.1,0.0500,-40.99,-99.79
973,7244359.6,0.0500,-36.77,-107.34
974,7328245.3,0.0500,-36.75,-104.49
975,7413102.4,0.0500,-32.47,-103.76
976,7498942.1,0.0500,-43.00,33.66
977,7585775.8,0.0500,-37.81,-23.79
978,7673614.9,0.0500,-35.95,175.89
979,7762471.2,0.0500,-35.74,-71.38
980,7852356.3,0.0500,-36.95,-119.58
981,7943282.3,0.0500,-36.50,-51.06
982,8035261.2,0.0500,-42.40,-163.58
983,8128305.2,0.0500,-37.63,-75.82
984,8222426.5,0.0500,-35.56,-119.78
985,8317637.7,0.0500,-31.37,-48.48
986,8413951.4,0.0500,-29.99,-25.64
987,8511380.4,0.0500,-32.23,-96.50
988,8609937.5,0.0500,-31.97,-47.24
989,8709635.9,0.0500,-30.17,-69.56
990,8810488.7,0.0500,-40.97,-121.39
991,8912509.4,0.0500,-33.64,-111.59
992,9015711.4,0.0500,-33.42,-95.58
993,9120108.4,0.0500,-36.69,-62.73
994,9225714.3,0.0500,-30.93,-97.42
995,9332543.0,0.0500,-34.27,-62.57
996,9440608.8,0.0500,-31.88,-76.11
997,9549925.9,0.0500,-29.98,-133.22
998,9660508.8,0.0500,-33.97,-113.14
999,9772372.2,0.0500,-31.99,-141.89
1000,9885530.9,0.0500,-39.02,-131.58
1001,10000000.0,0.0500,-37.64,-123.16
