#, Frequency (Hz), Amplitude (Vpp), Gain (dB), Phase (°)
1,100.0,0.0500,-61.55,9.53
2,101.2,0.0500,-62.10,-0.58
3,102.3,0.0500,-61.79,5.05
4,103.5,0.0500,-62.43,2.41
5,104.7,0.0500,-62.90,6.10
6,105.9,0.0500,-62.50,1.93
7,107.2,0.0500,-61.44,0.76
8,108.4,0.0500,-61.66,1.31
9,109.6,0.0500,-62.37,0.73
10,110.9,0.0500,-62.55,1.62
11,112.2,0.0500,-62.06,6.25
12,113.5,0.0500,-62.69,5.82
13,114.8,0.0500,-61.57,1.23
14,116.1,0.0500,-61.49,6.37
15,117.5,0.0500,-61.94,8.59
16,118.9,0.0500,-61.89,-0.18
17,120.2,0.0500,-61.63,-4.48
18,121.6,0.0500,-62.26,3.59
19,123.0,0.0500,-62.97,6.29
20,124.5,0.0500,-62.38,0.52
21,125.9,0.0500,-61.92,4.39
22,127.4,0.0500,-61.63,-0.71
23,128.8,0.0500,-62.20,2.65
24,130.3,0.0500,-61.43,3.69
25,131.8,0.0500,-62.34,4.36
26,133.4,0.0500,-61.97,3.71
27,134.9,0.0500,-61.75,-1.93
28,136.5,0.0500,-62.09,7.58
29,138.0,0.0500,-62.13,3.55
30,139.6,0.0500,-61.49,-0.91
31,141.3,0.0500,-62.02,-1.88
32,142.9,0.0500,-61.81,9.12
33,144.5,0.0500,-62.41,9.46
34,146.2,0.0500,-61.49,1.88
35,147.9,0.0500,-62.32,4.77
36,149.6,0.0500,-61.68,2.62
37,151.4,0.0500,-62.20,8.50
38,153.1,0.0500,-61.82,3.15
39,154.9,0.0500,-61.60,3.75
40,156.7,0.0500,-61.96,9.77
41,158.5,0.0500,-61.71,6.51
42,160.3,0.0500,-61.79,5.25
43,162.2,0.0500,-61.97,4.17
44,164.1,0.0500,-61.94,1.29
45,166.0,0.0500,-61.64,1.06
46,167.9,0.0500,-61.76,0.29
47,169.8,0.0500,-61.18,5.13
48,171.8,0.0500,-61.39,2.74
49,173.8,0.0500,-62.23,2.91
50,175.8,0.0500,-61.87,4.19
51,177.8,0.0500,-61.76,5.98
52,179.9,0.0500,-62.26,6.22
53,182.0,0.0500,-61.83,6.67
54,184.1,0.0500,-61.97,5.01
55,186.2,0.0500,-61.28,3.70
56,188.4,0.0500,-62.37,1.31
57,190.5,0.0500,-62.12,3.95
58,192.8,0.0500,-61.41,0.11
59,195.0,0.0500,-62.30,6.76
60,197.2,0.0500,-62.08,0.13
61,199.5,0.0500,-61.60,2.12
62,201.8,0.0500,-61.95,5.62
63,204.2,0.0500,-61.88,3.05
64,206.5,0.0500,-61.94,8.63
65,208.9,0.0500,-62.54,1.59
66,211.3,0.0500,-61.50,5.20
67,213.8,0.0500,-61.26,6.41
68,216.3,0.0500,-61.48,2.25
69,218.8,0.0500,-61.56,4.98
70,221.3,0.0500,-61.90,5.88
71,223.9,0.0500,-61.36,2.61
72,226.5,0.0500,-61.58,10.08
73,229.1,0.0500,-61.00,1.86
74,231.7,0.0500,-61.29,6.09
75,234.4,0.0500,-61.52,7.82
76,237.1,0.0500,-61.83,2.22
77,239.9,0.0500,-61.93,3.05
78,242.7,0.0500,-61.62,3.91
79,245.5,0.0500,-61.74,4.94
80,248.3,0.0500,-61.64,6.11
81,251.2,0.0500,-61.44,2.87
82,254.1,0.0500,-61.06,5.73
83,257.0,0.0500,-62.36,5.15
84,260.0,0.0500,-61.14,8.26
85,263.0,0.0500,-61.94,4.41
86,266.1,0.0500,-61.90,7.39
87,269.2,0.0500,-61.30,3.63
88,272.3,0.0500,-61.19,4.20
89,275.4,0.0500,-61.11,10.15
90,278.6,0.0500,-61.95,6.59
91,281.8,0.0500,-61.43,9.47
92,285.1,0.0500,-60.66,5.64
93,288.4,0.0500,-61.87,1.90
94,291.7,0.0500,-61.68,6.36
95,295.1,0.0500,-61.22,7.57
96,298.5,0.0500,-61.61,10.82
97,302.0,0.0500,-62.50,13.14
98,305.5,0.0500,-61.15,5.63
99,309.0,0.0500,-60.86,7.61
100,312.6,0.0500,-61.23,3.97
101,316.2,0.0500,-61.72,9.40
102,319.9,0.0500,-61.32,7.65
103,323.6,0.0500,-61.78,8.86
104,327.3,0.0500,-61.60,4.15
105,331.1,0.0500,-61.41,5.24
106,335.0,0.0500,-61.01,11.89
107,338.8,0.0500,-61.37,9.60
108,342.8,0.0500,-61.63,6.29
109,346.7,0.0500,-61.90,9.39
110,350.8,0.0500,-61.47,10.26
111,354.8,0.0500,-61.28,9.26
112,358.9,0.0500,-60.86,6.75
113,363.1,0.0500,-60.92,11.23
114,367.3,0.0500,-61.10,8.56
115,371.5,0.0500,-60.31,8.15
116,375.8,0.0500,-61.03,9.85
117,380.2,0.0500,-60.98,11.86
118,384.6,0.0500,-60.95,6.94
119,389.0,0.0500,-62.12,12.34
120,393.6,0.0500,-61.60,11.05
121,398.1,0.0500,-61.75,3.83
122,402.7,0.0500,-61.26,9.62
123,407.4,0.0500,-60.93,8.01
124,412.1,0.0500,-60.98,10.82
125,416.9,0.0500,-61.40,11.89
126,421.7,0.0500,-60.92,10.47
127,426.6,0.0500,-61.93,10.96
128,431.5,0.0500,-61.16,9.50
129,436.5,0.0500,-60.33,6.49
130,441.6,0.0500,-61.10,10.25
131,446.7,0.0500,-61.77,9.92
132,451.9,0.0500,-61.26,12.03
133,457.1,0.0500,-61.59,10.48
134,462.4,0.0500,-60.42,11.50
135,467.7,0.0500,-60.89,9.80
136,473.2,0.0500,-61.09,9.36
137,478.6,0.0500,-61.23,13.94
138,484.2,0.0500,-61.64,9.88
139,489.8,0.0500,-60.92,12.99
140,495.5,0.0500,-60.98,13.56
141,501.2,0.0500,-60.86,19.28
142,507.0,0.0500,-61.30,13.40
143,512.9,0.0500,-61.57,11.42
144,518.8,0.0500,-60.67,12.37
145,524.8,0.0500,-60.61,17.56
146,530.9,0.0500,-61.38,12.60
147,537.0,0.0500,-59.83,11.88
148,543.3,0.0500,-61.10,13.13
149,549.5,0.0500,-61.55,19.68
150,555.9,0.0500,-60.62,13.81
151,562.3,0.0500,-60.98,9.84
152,568.9,0.0500,-61.03,14.87
153,575.4,0.0500,-60.81,11.23
154,582.1,0.0500,-61.31,15.42
155,588.8,0.0500,-60.56,12.43
156,595.7,0.0500,-61.61,14.55
157,602.6,0.0500,-61.05,16.81
158,609.5,0.0500,-61.15,16.17
159,616.6,0.0500,-61.16,15.47
160,623.7,0.0500,-60.36,17.46
161,631.0,0.0500,-60.32,12.10
162,638.3,0.0500,-60.89,11.27
163,645.7,0.0500,-61.19,16.34
164,653.1,0.0500,-61.51,12.36
165,660.7,0.0500,-60.67,16.59
166,668.3,0.0500,-60.82,13.17
167,676.1,0.0500,-60.65,19.06
168,683.9,0.0500,-60.75,18.30
169,691.8,0.0500,-60.92,24.99
170,699.8,0.0500,-60.94,15.27
171,707.9,0.0500,-60.76,19.58
172,716.1,0.0500,-61.36,16.66
173,724.4,0.0500,-61.73,21.91
174,732.8,0.0500,-60.36,15.02
175,741.3,0.0500,-60.50,19.44
176,749.9,0.0500,-61.17,15.49
177,758.6,0.0500,-60.26,18.19
178,767.4,0.0500,-59.67,20.11
179,776.2,0.0500,-61.08,17.59
180,785.2,0.0500,-60.64,18.25
181,794.3,0.0500,-61.42,19.38
182,803.5,0.0500,-61.15,15.72
183,812.8,0.0500,-60.93,17.24
184,822.2,0.0500,-60.47,22.87
185,831.8,0.0500,-60.21,17.42
186,841.4,0.0500,-60.50,17.68
187,851.1,0.0500,-61.38,18.97
188,861.0,0.0500,-60.48,15.31
189,871.0,0.0500,-60.61,16.99
190,881.0,0.0500,-60.79,17.36
191,891.3,0.0500,-60.61,23.50
192,901.6,0.0500,-60.36,22.20
193,912.0,0.0500,-60.41,25.66
194,922.6,0.0500,-61.20,24.84
195,933.3,0.0500,-60.63,20.58
196,944.1,0.0500,-60.16,22.24
197,955.0,0.0500,-60.87,23.01
198,966.1,0.0500,-60.34,16.81
199,977.2,0.0500,-60.79,19.27
200,988.6,0.0500,-60.22,23.05
201,1000.0,0.0500,-59.74,20.74
202,1011.6,0.0500,-60.94,21.31
203,1023.3,0.0500,-60.42,21.77
204,1035.1,0.0500,-60.55,20.19
205,1047.1,0.0500,-60.34,26.34
206,1059.3,0.0500,-60.70,20.69
207,1071.5,0.0500,-59.89,25.18
208,1083.9,0.0500,-60.55,29.91
209,1096.5,0.0500,-60.45,25.33
210,1109.2,0.0500,-60.49,23.30
211,1122.0,0.0500,-60.34,21.68
212,1135.0,0.0500,-60.59,24.10
213,1148.2,0.0500,-60.09,25.40
214,1161.4,0.0500,-59.72,23.08
215,1174.9,0.0500,-59.97,28.03
216,1188.5,0.0500,-60.27,27.62
217,1202.3,0.0500,-60.89,28.16
218,1216.2,0.0500,-59.34,25.04
219,1230.3,0.0500,-59.57,23.71
220,1244.5,0.0500,-59.57,25.54
221,1258.9,0.0500,-60.02,25.49
222,1273.5,0.0500,-59.85,26.86
223,1288.2,0.0500,-59.77,31.53
224,1303.2,0.0500,-60.13,27.82
225,1318.3,0.0500,-59.87,26.21
226,1333.5,0.0500,-60.17,27.87
227,1349.0,0.0500,-60.28,33.37
228,1364.6,0.0500,-60.12,25.96
229,1380.4,0.0500,-58.83,30.91
230,1396.4,0.0500,-59.22,24.32
231,1412.5,0.0500,-60.28,31.21
232,1428.9,0.0500,-59.85,33.98
233,1445.4,0.0500,-59.87,39.07
234,1462.2,0.0500,-58.81,32.84
235,1479.1,0.0500,-59.45,29.26
236,1496.2,0.0500,-59.91,30.56
237,1513.6,0.0500,-59.27,25.03
238,1531.1,0.0500,-58.79,24.73
239,1548.8,0.0500,-59.31,36.58
240,1566.8,0.0500,-59.88,34.15
241,1584.9,0.0500,-59.55,35.50
242,1603.2,0.0500,-58.71,43.24
243,1621.8,0.0500,-58.23,28.38
244,1640.6,0.0500,-58.44,33.64
245,1659.6,0.0500,-58.46,26.24
246,1678.8,0.0500,-58.39,25.39
247,1698.2,0.0500,-59.53,29.68
248,1717.9,0.0500,-59.05,40.57
249,1737.8,0.0500,-58.62,39.77
250,1757.9,0.0500,-59.11,47.62
251,1778.3,0.0500,-58.59,26.29
252,1798.9,0.0500,-58.90,44.87
253,1819.7,0.0500,-60.70,38.13
254,1840.8,0.0500,-59.95,38.89
255,1862.1,0.0500,-58.52,33.17
256,1883.6,0.0500,-58.59,34.88
257,1905.5,0.0500,-59.19,39.75
258,1927.5,0.0500,-57.53,42.09
259,1949.8,0.0500,-58.80,39.97
260,1972.4,0.0500,-58.48,37.83
261,1995.3,0.0500,-58.93,39.09
262,2018.4,0.0500,-58.35,34.50
263,2041.7,0.0500,-58.52,43.56
264,2065.4,0.0500,-58.70,40.65
265,2089.3,0.0500,-58.76,36.65
266,2113.5,0.0500,-58.83,37.95
267,2138.0,0.0500,-58.59,44.18
268,2162.7,0.0500,-58.53,39.76
269,2187.8,0.0500,-58.33,38.18
270,2213.1,0.0500,-58.66,45.47
271,2238.7,0.0500,-58.35,45.10
272,2264.6,0.0500,-58.29,38.73
273,2290.9,0.0500,-58.11,44.05
274,2317.4,0.0500,-58.46,46.45
275,2344.2,0.0500,-57.28,41.89
276,2371.4,0.0500,-57.39,40.79
277,2398.8,0.0500,-57.70,41.88
278,2426.6,0.0500,-57.72,39.78
279,2454.7,0.0500,-57.85,46.94
280,2483.1,0.0500,-57.42,45.19
281,2511.9,0.0500,-57.59,46.73
282,2541.0,0.0500,-57.87,48.26
283,2570.4,0.0500,-57.75,47.80
284,2600.2,0.0500,-56.95,49.40
285,2630.3,0.0500,-57.35,49.32
286,2660.7,0.0500,-56.70,40.78
287,2691.5,0.0500,-58.30,53.07
288,2722.7,0.0500,-57.17,47.76
289,2754.2,0.0500,-57.78,44.26
290,2786.1,0.0500,-56.84,44.65
291,2818.4,0.0500,-57.11,43.80
292,2851.0,0.0500,-57.73,48.86
293,2884.0,0.0500,-57.69,44.43
294,2917.4,0.0500,-57.22,45.87
295,2951.2,0.0500,-57.21,51.13
296,2985.4,0.0500,-56.41,54.60
297,3020.0,0.0500,-56.40,51.49
298,3054.9,0.0500,-56.58,50.03
299,3090.3,0.0500,-57.15,48.37
300,3126.1,0.0500,-56.52,51.24
301,3162.3,0.0500,-56.50,51.89
302,3198.9,0.0500,-56.62,51.20
303,3235.9,0.0500,-56.72,52.55
304,3273.4,0.0500,-56.34,52.35
305,3311.3,0.0500,-56.32,53.61
306,3349.7,0.0500,-56.26,55.60
307,3388.4,0.0500,-56.73,54.85
308,3427.7,0.0500,-56.27,51.93
309,3467.4,0.0500,-56.08,50.65
310,3507.5,0.0500,-56.43,57.90
311,3548.1,0.0500,-56.21,51.32
312,3589.2,0.0500,-56.04,50.74
313,3630.8,0.0500,-56.65,50.10
314,3672.8,0.0500,-55.79,53.68
315,3715.4,0.0500,-55.55,53.74
316,3758.4,0.0500,-56.28,59.05
317,3801.9,0.0500,-55.43,48.11
318,3845.9,0.0500,-55.06,51.28
319,3890.5,0.0500,-55.44,53.65
320,3935.5,0.0500,-54.94,53.57
321,3981.1,0.0500,-55.83,43.02
322,4027.2,0.0500,-55.27,55.86
323,4073.8,0.0500,-55.43,58.89
324,4121.0,0.0500,-55.15,54.05
325,4168.7,0.0500,-55.42,54.22
326,4217.0,0.0500,-54.92,56.31
327,4265.8,0.0500,-55.11,58.36
328,4315.2,0.0500,-54.65,58.98
329,4365.2,0.0500,-54.94,58.34
330,4415.7,0.0500,-54.55,59.34
331,4466.8,0.0500,-54.07,57.69
332,4518.6,0.0500,-54.85,57.78
333,4570.9,0.0500,-54.69,59.12
334,4623.8,0.0500,-54.48,62.12
335,4677.4,0.0500,-54.13,61.37
336,4731.5,0.0500,-54.13,60.87
337,4786.3,0.0500,-54.11,61.02
338,4841.7,0.0500,-54.51,60.82
339,4897.8,0.0500,-53.91,61.40
340,4954.5,0.0500,-54.84,62.63
341,5011.9,0.0500,-54.20,61.31
342,5069.9,0.0500,-53.69,58.35
343,5128.6,0.0500,-53.39,61.80
344,5188.0,0.0500,-53.99,63.14
345,5248.1,0.0500,-53.57,62.67
346,5308.8,0.0500,-53.22,66.01
347,5370.3,0.0500,-53.11,64.40
348,5432.5,0.0500,-53.36,62.91
349,5495.4,0.0500,-53.20,59.74
350,5559.0,0.0500,-53.11,62.72
351,5623.4,0.0500,-52.76,62.92
352,5688.5,0.0500,-52.90,64.78
353,5754.4,0.0500,-53.35,60.86
354,5821.0,0.0500,-52.73,65.73
355,5888.4,0.0500,-53.18,67.09
356,5956.6,0.0500,-52.55,66.74
357,6025.6,0.0500,-52.72,64.90
358,6095.4,0.0500,-52.55,62.99
359,6166.0,0.0500,-52.19,66.27
360,6237.3,0.0500,-52.34,68.43
361,6309.6,0.0500,-52.05,66.97
362,6382.6,0.0500,-52.30,65.77
363,6456.5,0.0500,-51.92,64.80
364,6531.3,0.0500,-51.87,66.55
365,6606.9,0.0500,-51.87,68.21
366,6683.4,0.0500,-52.14,65.42
367,6760.8,0.0500,-51.95,68.95
368,6839.1,0.0500,-52.07,68.28
369,6918.3,0.0500,-51.94,69.65
370,6998.4,0.0500,-51.20,63.70
371,7079.5,0.0500,-51.25,67.48
372,7161.4,0.0500,-51.62,65.44
373,7244.4,0.0500,-51.37,68.02
374,7328.2,0.0500,-51.13,68.33
375,7413.1,0.0500,-51.41,66.90
376,7498.9,0.0500,-51.86,64.90
377,7585.8,0.0500,-50.83,67.67
378,7673.6,0.0500,-50.99,67.48
379,7762.5,0.0500,-50.75,68.52
380,7852.4,0.0500,-50.69,68.45
381,7943.3,0.0500,-50.35,67.24
382,8035.3,0.0500,-50.64,67.19
383,8128.3,0.0500,-50.22,70.31
384,8222.4,0.0500,-50.27,69.76
385,8317.6,0.0500,-50.23,71.14
386,8414.0,0.0500,-50.02,71.08
387,8511.4,0.0500,-50.07,70.32
388,8609.9,0.0500,-49.68,71.56
389,8709.6,0.0500,-49.75,69.40
390,8810.5,0.0500,-49.74,70.54
391,8912.5,0.0500,-49.74,72.35
392,9015.7,0.0500,-49.55,72.67
393,9120.1,0.0500,-49.24,71.05
394,9225.7,0.0500,-49.36,72.66
395,9332.5,0.0500,-49.32,70.69
396,9440.6,0.0500,-49.09,71.04
397,9549.9,0.0500,-49.04,71.69
398,9660.5,0.0500,-49.08,72.02
399,9772.4,0.0500,-48.91,72.10
400,9885.5,0.0500,-48.92,72.40
401,10000.0,0.0500,-48.73,72.96
402,10115.8,0.0500,-48.58,72.14
403,10232.9,0.0500,-48.49,73.54
404,10351.4,0.0500,-48.53,72.79
405,10471.3,0.0500,-48.45,73.86
406,10592.5,0.0500,-48.16,71.47
407,10715.2,0.0500,-48.18,74.01
408,10839.3,0.0500,-48.04,73.40
409,10964.8,0.0500,-47.86,74.66
410,11091.7,0.0500,-47.98,72.87
411,11220.2,0.0500,-47.72,73.50
412,11350.1,0.0500,-47.68,74.08
413,11481.5,0.0500,-47.65,73.31
414,11614.5,0.0500,-47.62,75.83
415,11749.0,0.0500,-47.53,73.42
416,11885.0,0.0500,-47.38,75.69
417,12022.6,0.0500,-47.41,74.00
418,12161.9,0.0500,-47.02,74.08
419,12302.7,0.0500,-47.04,75.89
420,12445.1,0.0500,-46.87,74.86
421,12589.3,0.0500,-46.97,75.74
422,12735.0,0.0500,-46.58,75.39
423,12882.5,0.0500,-46.87,74.84
424,13031.7,0.0500,-46.60,74.93
425,13182.6,0.0500,-46.43,75.52
426,13335.2,0.0500,-46.57,75.27
427,13489.6,0.0500,-46.65,76.06
428,13645.8,0.0500,-46.53,75.62
429,13803.8,0.0500,-46.38,76.82
430,13963.7,0.0500,-45.91,73.05
431,14125.4,0.0500,-45.99,76.08
432,14288.9,0.0500,-45.87,76.70
433,14454.4,0.0500,-45.73,76.05
434,14621.8,0.0500,-45.68,76.30
435,14791.1,0.0500,-45.56,75.41
436,14962.4,0.0500,-45.42,75.88
437,15135.6,0.0500,-45.42,76.63
438,15310.9,0.0500,-45.28,75.95
439,15488.2,0.0500,-45.14,76.03
440,15667.5,0.0500,-45.05,76.70
441,15848.9,0.0500,-45.04,77.17
442,16032.5,0.0500,-45.15,76.61
443,16218.1,0.0500,-44.82,76.28
444,16405.9,0.0500,-44.86,76.68
445,16595.9,0.0500,-44.72,77.48
446,16788.0,0.0500,-44.58,76.88
447,16982.4,0.0500,-44.47,77.05
448,17179.1,0.0500,-44.31,76.86
449,17378.0,0.0500,-44.25,77.38
450,17579.2,0.0500,-44.36,77.56
451,17782.8,0.0500,-44.18,78.77
452,17988.7,0.0500,-44.07,76.65
453,18197.0,0.0500,-44.05,77.12
454,18407.7,0.0500,-43.78,77.45
455,18620.9,0.0500,-43.76,77.67
456,18836.5,0.0500,-43.63,77.26
457,19054.6,0.0500,-43.39,78.61
458,19275.2,0.0500,-43.47,77.68
459,19498.4,0.0500,-43.37,78.32
460,19724.2,0.0500,-43.30,78.08
461,19952.6,0.0500,-43.02,78.02
462,20183.7,0.0500,-43.03,77.69
463,20417.4,0.0500,-43.07,78.70
464,20653.8,0.0500,-42.88,78.06
465,20893.0,0.0500,-42.92,77.66
466,21134.9,0.0500,-42.65,78.03
467,21379.6,0.0500,-42.66,77.77
468,21627.2,0.0500,-42.56,78.94
469,21877.6,0.0500,-42.50,78.63
470,22130.9,0.0500,-42.31,78.12
471,22387.2,0.0500,-42.20,77.98
472,22646.4,0.0500,-42.26,79.08
473,22908.7,0.0500,-42.02,78.44
474,23173.9,0.0500,-41.92,78.61
475,23442.3,0.0500,-41.88,78.69
476,23713.7,0.0500,-41.76,78.69
477,23988.3,0.0500,-41.71,78.09
478,24266.1,0.0500,-41.65,78.75
479,24547.1,0.0500,-41.55,78.63
480,24831.3,0.0500,-41.42,79.09
481,25118.9,0.0500,-41.32,79.17
482,25409.7,0.0500,-41.22,79.22
483,25704.0,0.0500,-41.12,79.17
484,26001.6,0.0500,-41.00,79.14
485,26302.7,0.0500,-40.92,79.14
486,26607.3,0.0500,-40.73,79.18
487,26915.3,0.0500,-40.79,79.19
488,27227.0,0.0500,-40.63,79.17
489,27542.3,0.0500,-40.52,79.40
490,27861.2,0.0500,-40.45,79.75
491,28183.8,0.0500,-40.36,79.18
492,28510.2,0.0500,-40.25,79.23
493,28840.3,0.0500,-40.08,79.59
494,29174.3,0.0500,-40.03,79.03
495,29512.1,0.0500,-39.96,79.47
496,29853.8,0.0500,-39.86,79.48
497,30199.5,0.0500,-39.76,79.38
498,30549.2,0.0500,-39.70,79.44
499,30903.0,0.0500,-39.58,79.60
500,31260.8,0.0500,-39.48,79.48
501,31622.8,0.0500,-39.40,79.23
502,31989.0,0.0500,-39.25,79.65
503,32359.4,0.0500,-39.19,80.02
504,32734.1,0.0500,-39.21,79.26
505,33113.1,0.0500,-38.98,79.50
506,33496.5,0.0500,-38.95,79.73
507,33884.4,0.0500,-38.87,79.17
508,34276.8,0.0500,-38.75,79.55
509,34673.7,0.0500,-38.79,79.60
510,35075.2,0.0500,-38.56,79.51
511,35481.3,0.0500,-38.50,79.27
512,35892.2,0.0500,-38.39,79.63
513,36307.8,0.0500,-38.23,79.96
514,36728.2,0.0500,-38.17,80.20
515,37153.5,0.0500,-38.08,79.82
516,37583.7,0.0500,-37.96,79.62
517,38018.9,0.0500,-37.88,80.24
518,38459.2,0.0500,-37.79,79.99
519,38904.5,0.0500,-37.71,79.51
520,39355.0,0.0500,-37.67,80.07
521,39810.7,0.0500,-37.47,79.89
522,40271.7,0.0500,-37.33,79.84
523,40738.0,0.0500,-37.34,79.82
524,41209.8,0.0500,-37.30,79.93
525,41686.9,0.0500,-37.13,80.34
526,42169.7,0.0500,-37.15,80.19
527,42658.0,0.0500,-36.96,79.75
528,43151.9,0.0500,-36.89,79.89
529,43651.6,0.0500,-36.73,79.67
530,44157.0,0.0500,-36.66,79.89
531,44668.4,0.0500,-36.51,79.79
532,45185.6,0.0500,-36.47,79.82
533,45708.8,0.0500,-36.33,80.27
534,46238.1,0.0500,-36.31,79.94
535,46773.5,0.0500,-36.25,79.87
536,47315.1,0.0500,-36.14,80.36
537,47863.0,0.0500,-36.00,80.09
538,48417.2,0.0500,-35.80,80.81
539,48977.9,0.0500,-35.82,80.39
540,49545.0,0.0500,-35.69,80.01
541,50118.7,0.0500,-35.55,80.75
542,50699.1,0.0500,-35.50,79.63
543,51286.1,0.0500,-35.42,80.51
544,51880.0,0.0500,-35.25,79.53
545,52480.7,0.0500,-35.13,80.12
546,53088.4,0.0500,-35.10,80.09
547,53703.2,0.0500,-35.01,80.19
548,54325.0,0.0500,-34.95,79.52
549,54954.1,0.0500,-34.84,80.69
550,55590.4,0.0500,-34.70,80.28
551,56234.1,0.0500,-34.62,80.10
552,56885.3,0.0500,-34.53,79.71
553,57544.0,0.0500,-34.42,79.99
554,58210.3,0.0500,-34.35,80.13
555,58884.4,0.0500,-34.30,79.66
556,59566.2,0.0500,-34.13,80.16
557,60256.0,0.0500,-34.20,79.68
558,60953.7,0.0500,-34.01,79.68
559,61659.5,0.0500,-33.85,79.97
560,62373.5,0.0500,-33.67,79.95
561,63095.7,0.0500,-33.70,79.48
562,63826.3,0.0500,-33.64,79.78
563,64565.4,0.0500,-33.49,79.82
564,65313.1,0.0500,-33.35,79.57
565,66069.3,0.0500,-33.34,80.26
566,66834.4,0.0500,-33.11,79.96
567,67608.3,0.0500,-33.13,79.81
568,68391.2,0.0500,-33.01,79.72
569,69183.1,0.0500,-32.98,79.67
570,69984.2,0.0500,-32.79,80.02
571,70794.6,0.0500,-32.68,80.64
572,71614.3,0.0500,-32.57,79.87
573,72443.6,0.0500,-32.54,80.48
574,73282.5,0.0500,-32.49,79.59
575,74131.0,0.0500,-32.30,79.78
576,74989.4,0.0500,-32.23,79.98
577,75857.8,0.0500,-32.07,79.67
578,76736.1,0.0500,-31.97,79.72
579,77624.7,0.0500,-31.93,79.60
580,78523.6,0.0500,-31.80,80.11
581,79432.8,0.0500,-31.78,80.06
582,80352.6,0.0500,-31.65,79.47
583,81283.1,0.0500,-31.54,79.95
584,82224.3,0.0500,-31.48,80.23
585,83176.4,0.0500,-31.35,80.01
586,84139.5,0.0500,-31.24,79.93
587,85113.8,0.0500,-31.10,79.51
588,86099.4,0.0500,-31.01,80.28
589,87096.4,0.0500,-30.96,80.15
590,88104.9,0.0500,-30.82,80.00
591,89125.1,0.0500,-30.66,80.19
592,90157.1,0.0500,-30.60,80.12
593,91201.1,0.0500,-30.54,79.79
594,92257.1,0.0500,-30.42,79.45
595,93325.4,0.0500,-30.34,80.04
596,94406.1,0.0500,-30.23,80.44
597,95499.3,0.0500,-30.16,80.10
598,96605.1,0.0500,-30.04,79.36
599,97723.7,0.0500,-29.89,80.04
600,98855.3,0.0500,-29.77,79.75
601,100000.0,0.0500,-29.66,79.71
602,101157.9,0.0500,-29.61,79.92
603,102329.3,0.0500,-29.50,80.04
604,103514.2,0.0500,-29.47,79.46
605,104712.9,0.0500,-29.25,79.35
606,105925.4,0.0500,-29.17,79.70
607,107151.9,0.0500,-29.15,79.46
608,108392.7,0.0500,-28.91,79.54
609,109647.8,0.0500,-28.85,79.62
610,110917.5,0.0500,-28.74,79.62
611,112201.8,0.0500,-28.56,79.49
612,113501.1,0.0500,-28.50,79.42
613,114815.4,0.0500,-28.46,79.24
614,116144.9,0.0500,-28.31,79.67
615,117489.8,0.0500,-28.21,79.45
616,118850.2,0.0500,-28.07,79.20
617,120226.4,0.0500,-28.01,79.19
618,121618.6,0.0500,-27.84,79.02
619,123026.9,0.0500,-27.74,79.32
620,124451.5,0.0500,-27.60,79.12
621,125892.5,0.0500,-27.56,79.13
622,127350.3,0.0500,-27.43,79.59
623,128825.0,0.0500,-27.31,79.22
624,130316.7,0.0500,-27.02,78.50
625,131825.7,0.0500,-27.02,78.83
626,133352.1,0.0500,-26.97,78.56
627,134896.3,0.0500,-26.88,79.29
628,136458.3,0.0500,-26.74,78.35
629,138038.4,0.0500,-26.66,79.12
630,139636.8,0.0500,-26.64,78.80
631,141253.8,0.0500,-26.30,78.48
632,142889.4,0.0500,-26.28,78.74
633,144544.0,0.0500,-26.07,78.69
634,146217.7,0.0500,-26.01,78.59
635,147910.8,0.0500,-25.90,78.46
636,149623.6,0.0500,-25.79,78.77
637,151356.1,0.0500,-25.68,78.42
638,153108.7,0.0500,-25.53,79.38
639,154881.7,0.0500,-25.54,78.83
640,156675.1,0.0500,-25.28,78.15
641,158489.3,0.0500,-24.95,78.49
642,160324.5,0.0500,-24.87,77.89
643,162181.0,0.0500,-24.90,78.02
644,164059.0,0.0500,-24.78,77.91
645,165958.7,0.0500,-24.68,77.54
646,167880.4,0.0500,-24.85,78.43
647,169824.4,0.0500,-24.52,77.69
648,171790.8,0.0500,-24.19,76.57
649,173780.1,0.0500,-24.17,77.50
650,175792.4,0.0500,-24.13,76.69
651,177827.9,0.0500,-23.88,77.24
652,179887.1,0.0500,-23.45,75.91
653,181970.1,0.0500,-23.65,76.92
654,184077.2,0.0500,-23.51,77.00
655,186208.7,0.0500,-23.19,77.01
656,188364.9,0.0500,-23.28,74.78
657,190546.1,0.0500,-23.09,76.51
658,192752.5,0.0500,-22.92,75.82
659,194984.5,0.0500,-22.83,76.23
660,197242.3,0.0500,-22.64,76.63
661,199526.2,0.0500,-22.45,74.81
662,201836.6,0.0500,-22.52,75.20
663,204173.8,0.0500,-22.24,75.70
664,206538.0,0.0500,-22.13,75.60
665,208929.6,0.0500,-21.95,75.58
666,211348.9,0.0500,-21.85,75.49
667,213796.2,0.0500,-21.33,74.88
668,216271.9,0.0500,-21.57,74.93
669,218776.2,0.0500,-21.46,74.77
670,221309.5,0.0500,-21.14,73.82
671,223872.1,0.0500,-21.02,74.34
672,226464.4,0.0500,-20.88,74.26
673,229086.8,0.0500,-20.66,74.71
674,231739.5,0.0500,-20.61,73.87
675,234422.9,0.0500,-20.31,72.78
676,237137.4,0.0500,-20.08,73.58
677,239883.3,0.0500,-19.92,72.79
678,242661.0,0.0500,-19.95,73.00
679,245470.9,0.0500,-19.72,72.65
680,248313.3,0.0500,-19.55,72.38
681,251188.6,0.0500,-19.44,73.52
682,254097.3,0.0500,-19.26,71.81
683,257039.6,0.0500,-18.99,70.35
684,260016.0,0.0500,-18.75,71.30
685,263026.8,0.0500,-18.67,70.86
686,266072.5,0.0500,-18.47,70.42
687,269153.5,0.0500,-18.32,69.69
688,272270.1,0.0500,-18.06,69.82
689,275422.9,0.0500,-18.02,68.67
690,278612.1,0.0500,-17.65,69.09
691,281838.3,0.0500,-17.46,68.51
692,285101.8,0.0500,-17.04,68.58
693,288403.2,0.0500,-17.20,68.35
694,291742.7,0.0500,-16.80,67.59
695,295120.9,0.0500,-16.56,67.06
696,298538.3,0.0500,-16.38,66.73
697,301995.2,0.0500,-16.11,65.99
698,305492.1,0.0500,-15.91,65.54
699,309029.5,0.0500,-15.65,64.84
700,312607.9,0.0500,-15.41,64.25
701,316227.8,0.0500,-15.20,63.63
702,319889.5,0.0500,-14.85,62.54
703,323593.7,0.0500,-14.80,62.60
704,327340.7,0.0500,-14.56,60.40
705,331131.1,0.0500,-14.16,58.27
706,334965.4,0.0500,-14.01,61.35
707,338844.2,0.0500,-13.50,59.54
708,342767.8,0.0500,-13.34,57.98
709,346736.9,0.0500,-13.10,56.43
710,350751.9,0.0500,-12.71,55.78
711,354813.4,0.0500,-12.35,55.15
712,358921.9,0.0500,-12.11,53.34
713,363078.1,0.0500,-11.78,52.23
714,367282.3,0.0500,-11.46,50.70
715,371535.2,0.0500,-11.14,48.92
716,375837.4,0.0500,-10.78,47.31
717,380189.4,0.0500,-10.54,45.55
718,384591.8,0.0500,-10.10,43.51
719,389045.1,0.0500,-9.75,41.22
720,393550.1,0.0500,-9.45,38.44
721,398107.2,0.0500,-9.08,36.44
722,402717.0,0.0500,-8.94,33.52
723,407380.3,0.0500,-8.35,30.96
724,412097.5,0.0500,-8.07,27.70
725,416869.4,0.0500,-7.46,25.22
726,421696.5,0.0500,-7.43,20.82
727,426579.5,0.0500,-7.14,16.38
728,431519.1,0.0500,-6.99,13.24
729,436515.8,0.0500,-6.74,8.25
730,441570.4,0.0500,-6.66,4.43
731,446683.6,0.0500,-6.53,-0.30
732,451855.9,0.0500,-6.53,-5.42
733,457088.2,0.0500,-6.60,-9.99
734,462381.0,0.0500,-6.66,-14.67
735,467735.1,0.0500,-6.83,-19.17
736,473151.3,0.0500,-6.99,-23.73
737,478630.1,0.0500,-7.18,-27.67
738,484172.4,0.0500,-7.47,-31.64
739,489778.8,0.0500,-7.69,-37.06
740,495450.2,0.0500,-8.04,-38.88
741,501187.2,0.0500,-8.38,-41.07
742,506990.7,0.0500,-8.79,-44.83
743,512861.4,0.0500,-9.19,-47.10
744,518800.0,0.0500,-9.03,-52.83
745,524807.5,0.0500,-9.85,-52.54
746,530884.4,0.0500,-9.70,-54.78
747,537031.8,0.0500,-10.62,-56.47
748,543250.3,0.0500,-10.89,-58.61
749,549540.9,0.0500,-11.37,-60.22
750,555904.3,0.0500,-11.55,-61.07
751,562341.3,0.0500,-12.03,-63.17
752,568852.9,0.0500,-12.23,-65.86
753,575439.9,0.0500,-13.08,-68.19
754,582103.2,0.0500,-13.04,-66.05
755,588843.7,0.0500,-13.13,-68.84
756,595662.1,0.0500,-13.52,-68.83
757,602559.6,0.0500,-13.90,-70.14
758,609536.9,0.0500,-14.15,-71.33
759,616595.0,0.0500,-14.24,-71.58
760,623734.8,0.0500,-14.78,-72.23
761,630957.3,0.0500,-14.81,-73.75
762,638263.5,0.0500,-15.30,-74.45
763,645654.2,0.0500,-15.60,-74.88
764,653130.6,0.0500,-15.85,-75.62
765,660693.4,0.0500,-16.17,-77.24
766,668343.9,0.0500,-15.56,-80.22
767,676083.0,0.0500,-16.47,-78.02
768,683911.6,0.0500,-16.84,-77.89
769,691831.0,0.0500,-16.54,-88.40
770,699842.0,0.0500,-17.19,-79.55
771,707945.8,0.0500,-18.19,-77.74
772,716143.4,0.0500,-17.74,-80.75
773,724436.0,0.0500,-18.05,-81.97
774,732824.5,0.0500,-18.23,-81.24
775,741310.2,0.0500,-18.31,-81.19
776,749894.2,0.0500,-18.65,-82.69
777,758577.6,0.0500,-18.58,-82.36
778,767361.5,0.0500,-18.33,-86.50
779,776247.1,0.0500,-18.71,-80.59
780,785235.6,0.0500,-17.84,-82.75
781,794328.2,0.0500,-19.58,-84.67
782,803526.1,0.0500,-20.12,-87.64
783,812830.5,0.0500,-20.35,-84.69
784,822242.6,0.0500,-19.48,-88.66
785,831763.8,0.0500,-20.33,-84.52
786,841395.1,0.0500,-20.90,-79.11
787,851138.0,0.0500,-20.94,-90.97
788,860993.8,0.0500,-21.15,-87.22
789,870963.6,0.0500,-21.24,-87.52
790,881048.9,0.0500,-21.45,-87.11
791,891250.9,0.0500,-21.76,-87.35
792,901571.1,0.0500,-21.78,-86.65
793,912010.8,0.0500,-22.23,-87.78
794,922571.4,0.0500,-21.80,-87.39
795,933254.3,0.0500,-22.15,-89.12
796,944060.9,0.0500,-22.49,-87.90
797,954992.6,0.0500,-22.75,-87.42
798,966050.9,0.0500,-23.14,-87.54
799,977237.2,0.0500,-23.21,-87.31
800,988553.1,0.0500,-23.56,-90.14
801,1000000.0,0.0500,-23.57,-85.01
802,1011579.5,0.0500,-23.46,-86.46
803,1023293.0,0.0500,-23.45,-85.84
804,1035142.2,0.0500,-24.69,-92.59
805,1047128.5,0.0500,-23.99,-86.09
806,1059253.7,0.0500,-24.63,-88.31
807,1071519.3,0.0500,-24.30,-89.76
808,1083926.9,0.0500,-24.73,-88.39
809,1096478.2,0.0500,-24.00,-90.81
810,1109174.8,0.0500,-24.97,-89.83
811,1122018.5,0.0500,-23.79,-83.35
812,1135010.8,0.0500,-25.44,-92.75
813,1148153.6,0.0500,-26.91,-88.38
814,1161448.6,0.0500,-26.28,-88.48
815,1174897.6,0.0500,-26.41,-86.47
816,1188502.2,0.0500,-26.59,-95.71
817,1202264.4,0.0500,-27.39,-80.60
818,1216186.0,0.0500,-25.21,-77.48
819,1230268.8,0.0500,-28.41,-83.19
820,1244514.6,0.0500,-26.88,-83.74
821,1258925.4,0.0500,-26.74,-95.65
822,1273503.1,0.0500,-27.39,-83.68
823,1288249.6,0.0500,-27.45,-84.41
824,1303166.8,0.0500,-28.52,-79.81
825,1318256.7,0.0500,-28.23,-79.71
826,1333521.4,0.0500,-29.27,-93.87
827,1348962.9,0.0500,-27.88,-73.34
828,1364583.1,0.0500,-27.73,-77.10
829,1380384.3,0.0500,-26.82,-79.73
830,1396368.4,0.0500,-27.05,-59.66
831,1412537.5,0.0500,-27.64,-59.41
832,1428894.0,0.0500,-23.97,-56.35
833,1445439.8,0.0500,-26.58,-74.41
834,1462177.2,0.0500,-26.23,-69.12
835,1479108.4,0.0500,-25.08,-68.06
836,1496235.7,0.0500,-24.68,-73.63
837,1513561.2,0.0500,-26.17,-69.28
838,1531087.5,0.0500,-26.13,-74.90
839,1548816.6,0.0500,-25.40,-82.22
840,1566751.1,0.0500,-25.91,-84.45
841,1584893.2,0.0500,-25.24,-91.94
842,1603245.4,0.0500,-25.24,-94.68
843,1621810.1,0.0500,-21.47,-106.19
844,1640589.8,0.0500,-26.40,-93.62
845,1659586.9,0.0500,-23.19,-87.53
846,1678804.0,0.0500,-27.52,-99.21
847,1698243.7,0.0500,-27.66,-91.85
848,1717908.4,0.0500,-27.57,-98.71
849,1737800.8,0.0500,-26.62,-106.82
850,1757923.6,0.0500,-28.02,-116.12
851,1778279.4,0.0500,-28.88,-105.14
852,1798870.9,0.0500,-27.52,-105.85
853,1819700.9,0.0500,-27.07,-108.23
854,1840772.0,0.0500,-30.91,-159.06
855,1862087.1,0.0500,-30.37,-121.43
856,1883649.1,0.0500,-29.65,-157.74
857,1905460.7,0.0500,-29.26,-130.13
858,1927524.9,0.0500,-34.99,-141.42
859,1949844.6,0.0500,-35.80,152.32
860,1972422.7,0.0500,-31.03,-128.83
861,1995262.3,0.0500,-29.35,155.43
862,2018366.4,0.0500,-39.88,38.55
863,2041737.9,0.0500,-35.26,-16.59
864,2065380.2,0.0500,-36.70,7.14
865,2089296.1,0.0500,-29.38,-33.52
866,2113489.0,0.0500,-29.53,-45.61
867,2137962.1,0.0500,-27.46,-24.46
868,2162718.5,0.0500,-30.87,-61.54
869,2187761.6,0.0500,-30.34,-54.48
870,2213094.7,0.0500,-26.34,-10.82
871,2238721.1,0.0500,-28.11,-77.36
872,2264644.3,0.0500,-28.68,-93.47
873,2290867.7,0.0500,-32.67,-86.67
874,2317394.6,0.0500,-28.69,-83.93
875,2344228.8,0.0500,-30.98,-78.51
876,2371373.7,0.0500,-27.46,-83.40
877,2398832.9,0.0500,-31.01,-92.19
878,2426610.1,0.0500,-30.80,-87.40
879,2454708.9,0.0500,-31.27,-92.77
880,2483133.1,0.0500,-31.76,-81.97
881,2511886.4,0.0500,-28.73,-90.91
882,2540972.7,0.0500,-32.47,-107.47
883,2570395.8,0.0500,-28.04,-72.32
884,2600159.6,0.0500,-28.90,-123.49
885,2630268.0,0.0500,-32.60,-74.97
886,2660725.1,0.0500,-32.51,-104.06
887,2691534.8,0.0500,-35.48,-94.83
888,2722701.3,0.0500,-34.09,-103.41
889,2754228.7,0.0500,-33.38,-121.64
890,2786121.2,0.0500,-29.81,-70.92
891,2818382.9,0.0500,-35.20,-91.54
892,2851018.3,0.0500,-34.21,-113.73
893,2884031.5,0.0500,-35.91,-95.41
894,2917427.0,0.0500,-32.14,-72.14
895,2951209.2,0.0500,-34.51,-100.84
896,2985382.6,0.0500,-35.93,-97.44
897,3019951.7,0.0500,-35.21,-43.39
898,3054921.1,0.0500,-32.61,-76.36
899,3090295.4,0.0500,-35.14,-68.60
900,3126079.4,0.0500,-32.79,-72.41
901,3162277.7,0.0500,-30.45,-87.17
902,3198895.1,0.0500,-34.13,-97.70
903,3235936.6,0.0500,-34.94,-97.84
904,3273406.9,0.0500,-32.50,-97.04
905,3311311.2,0.0500,-30.27,-90.58
906,3349654.4,0.0500,-36.33,-104.60
907,3388441.6,0.0500,-34.27,-81.96
908,3427677.9,0.0500,-33.39,-94.04
909,3467368.5,0.0500,-31.96,-109.09
910,3507518.7,0.0500,-35.19,-104.57
911,3548133.9,0.0500,-31.55,-93.57
912,3589219.3,0.0500,-34.39,-106.06
913,3630780.5,0.0500,-42.63,-76.18
914,3672823.0,0.0500,-31.06,-83.38
915,3715352.3,0.0500,-33.69,-89.61
916,3758374.0,0.0500,-37.30,-118.90
917,3801894.0,0.0500,-32.86,-77.06
918,3845917.8,0.0500,-34.96,-106.14
919,3890451.4,0.0500,-32.09,-18.10
920,3935500.8,0.0500,-33.47,-34.57
921,3981071.7,0.0500,-35.12,-101.84
922,4027170.3,0.0500,-35.44,-101.23
923,4073802.8,0.0500,-34.84,-103.17
924,4120975.2,0.0500,-36.09,-114.66
925,4168693.8,0.0500,-34.08,-110.27
926,4216965.0,0.0500,-30.84,-96.64
927,4265795.2,0.0500,-37.34,-113.77
928,4315190.8,0.0500,-35.57,-91.13
929,4365158.3,0.0500,-34.01,-99.06
930,4415704.5,0.0500,-32.89,-104.59
931,4466835.9,0.0500,-35.18,-108.87
932,4518559.4,0.0500,-38.62,-127.35
933,4570881.9,0.0500,-38.31,-102.71
934,4623810.2,0.0500,-36.93,-110.77
935,4677351.4,0.0500,-37.10,-93.38
936,4731512.6,0.0500,-40.90,-97.27
937,4786300.9,0.0500,-37.58,-87.42
938,4841723.7,0.0500,-34.76,-123.45
939,4897788.2,0.0500,-36.70,-115.93
940,4954501.9,0.0500,-25.30,-39.07
941,5011872.3,0.0500,-39.62,-99.32
942,5069907.1,0.0500,-37.21,-123.45
943,5128613.8,0.0500,-37.92,-99.42
944,5188000.4,0.0500,-37.35,-111.82
945,5248074.6,0.0500,-35.86,-111.15
946,5308844.4,0.0500,-34.14,-102.59
947,5370318.0,0.0500,-41.26,-99.98
948,5432503.3,0.0500,-37.52,-120.23
949,5495408.7,0.0500,-41.92,-91.00
950,5559042.6,0.0500,-34.81,-123.22
951,5623413.3,0.0500,-34.26,-88.26
952,5688529.3,0.0500,-40.72,-100.52
953,5754399.4,0.0500,-32.98,-114.67
954,5821032.2,0.0500,-39.06,-105.22
955,5888436.6,0.0500,-37.09,-103.08
956,5956621.4,0.0500,-38.84,-136.12
957,6025595.9,0.0500,-39.95,-82.56
958,6095369.0,0.0500,-40.95,-132.97
959,6165950.0,0.0500,-36.39,-144.66
960,6237348.4,0.0500,-41.19,-120.88
961,6309573.4,0.0500,-38.28,-118.22
962,6382634.9,0.0500,-36.12,-138.50
963,6456542.3,0.0500,-37.76,-145.51
964,6531305.5,0.0500,-37.02,-150.40
965,6606934.5,0.0500,-39.15,-109.60
966,6683439.2,0.0500,-43.76,-139.75
967,6760829.8,0.0500,-42.72,-103.13
968,6839116.5,0.0500,-41.71,-120.20
969,6918309.7,0.0500,-48.59,-136.43
970,6998420.0,0.0500,-40.82,188.44
971,7079457.8,0.0500,-46.40,81.88
972,7161434.1,0.0500,-40.21,-111.36
973,7244359.6,0.0500,-37.92,-108.72
974,7328245.3,0.0500,-50.39,-125.37
975,7413102.4,0.0500,-40.85,189.13
976,7498942.1,0.0500,-51.40,-72.01
977,7585775.8,0.0500,-45.90,-127.31
978,7673614.9,0.0500,-44.16,69.98
979,7762471.2,0.0500,-36.98,-84.22
980,7852356.3,0.0500,-38.22,-123.27
981,7943282.3,0.0500,-46.13,-105.07
982,8035261.2,0.0500,-38.98,-61.42
983,8128305.2,0.0500,-41.96,-95.30
984,8222426.5,0.0500,-34.76,-100.91
985,8317637.7,0.0500,-42.30,-112.02
986,8413951.4,0.0500,-41.28,-161.37
987,8511380.4,0.0500,-40.73,-85.75
988,8609937.5,0.0500,-40.85,-99.74
989,8709635.9,0.0500,-41.11,-116.73
990,8810488.7,0.0500,-47.68,-128.14
991,8912509.4,0.0500,-43.66,-156.39
992,9015711.4,0.0500,-38.84,-126.92
993,9120108.4,0.0500,-44.42,-108.41
994,9225714.3,0.0500,-49.01,-66.03
995,9332543.0,0.0500,-48.59,189.01
996,9440608.8,0.0500,-36.58,-123.76
997,9549925.9,0.0500,-43.65,-155.47
998,9660508.8,0.0500,-44.08,-129.05
999,9772372.2,0.0500,-45.26,-130.06
1000,9885530.9,0.0500,-46.18,-103.19
1001,10000000.0,0.0500,-51.06,-80.27
