#, Frequency (Hz), Amplitude (Vpp), Gain (dB), Phase (°)
1,100.0,0.0500,-65.29,6.66
2,101.2,0.0500,-68.91,9.03
3,102.3,0.0500,-67.12,3.56
4,103.5,0.0500,-69.04,-0.42
5,104.7,0.0500,-67.79,2.87
6,105.9,0.0500,-67.19,4.58
7,107.2,0.0500,-66.58,-5.87
8,108.4,0.0500,-66.87,10.04
9,109.6,0.0500,-66.35,-9.73
10,110.9,0.0500,-67.38,8.32
11,112.2,0.0500,-67.09,-2.11
12,113.5,0.0500,-67.77,-4.21
13,114.8,0.0500,-67.54,-11.75
14,116.1,0.0500,-65.67,4.27
15,117.5,0.0500,-67.25,2.41
16,118.9,0.0500,-68.45,-0.91
17,120.2,0.0500,-67.60,2.73
18,121.6,0.0500,-66.44,-2.97
19,123.0,0.0500,-68.66,-0.64
20,124.5,0.0500,-68.38,-9.71
21,125.9,0.0500,-68.86,1.67
22,127.4,0.0500,-65.42,7.30
23,128.8,0.0500,-66.74,1.15
24,130.3,0.0500,-66.45,3.17
25,131.8,0.0500,-68.28,15.63
26,133.4,0.0500,-66.92,5.82
27,134.9,0.0500,-68.12,2.75
28,136.5,0.0500,-66.20,-2.39
29,138.0,0.0500,-66.87,8.26
30,139.6,0.0500,-67.83,3.66
31,141.3,0.0500,-68.50,-5.75
32,142.9,0.0500,-67.59,11.29
33,144.5,0.0500,-67.47,8.00
34,146.2,0.0500,-69.56,17.51
35,147.9,0.0500,-66.54,4.51
36,149.6,0.0500,-68.22,-0.05
37,151.4,0.0500,-67.55,-0.18
38,153.1,0.0500,-67.07,-6.33
39,154.9,0.0500,-66.94,2.20
40,156.7,0.0500,-68.16,2.63
41,158.5,0.0500,-67.80,3.94
42,160.3,0.0500,-66.59,-2.27
43,162.2,0.0500,-66.90,6.58
44,164.1,0.0500,-66.64,7.34
45,166.0,0.0500,-67.36,5.51
46,167.9,0.0500,-66.28,2.80
47,169.8,0.0500,-66.36,2.90
48,171.8,0.0500,-67.97,2.98
49,173.8,0.0500,-68.09,-4.35
50,175.8,0.0500,-68.12,-6.00
51,177.8,0.0500,-66.31,-8.74
52,179.9,0.0500,-66.57,10.28
53,182.0,0.0500,-65.90,5.99
54,184.1,0.0500,-66.43,-3.61
55,186.2,0.0500,-66.95,20.36
56,188.4,0.0500,-67.46,10.77
57,190.5,0.0500,-66.45,4.59
58,192.8,0.0500,-67.24,16.95
59,195.0,0.0500,-66.20,-5.97
60,197.2,0.0500,-65.27,-0.42
61,199.5,0.0500,-66.19,5.13
62,201.8,0.0500,-66.87,-0.71
63,204.2,0.0500,-66.45,5.07
64,206.5,0.0500,-66.76,4.68
65,208.9,0.0500,-68.16,12.73
66,211.3,0.0500,-67.83,5.68
67,213.8,0.0500,-68.12,12.29
68,216.3,0.0500,-66.45,2.11
69,218.8,0.0500,-65.98,13.91
70,221.3,0.0500,-67.77,2.30
71,223.9,0.0500,-65.88,2.98
72,226.5,0.0500,-66.28,-0.17
73,229.1,0.0500,-67.11,8.98
74,231.7,0.0500,-68.21,10.01
75,234.4,0.0500,-67.96,2.30
76,237.1,0.0500,-67.28,3.29
77,239.9,0.0500,-67.02,-0.39
78,242.7,0.0500,-66.63,9.69
79,245.5,0.0500,-66.37,11.91
80,248.3,0.0500,-67.85,10.47
81,251.2,0.0500,-66.04,0.57
82,254.1,0.0500,-66.91,15.35
83,257.0,0.0500,-66.80,12.61
84,260.0,0.0500,-67.40,3.78
85,263.0,0.0500,-66.32,6.06
86,266.1,0.0500,-67.53,8.09
87,269.2,0.0500,-66.34,12.81
88,272.3,0.0500,-66.83,-0.03
89,275.4,0.0500,-66.82,8.19
90,278.6,0.0500,-68.10,14.37
91,281.8,0.0500,-66.31,6.44
92,285.1,0.0500,-65.67,4.20
93,288.4,0.0500,-65.89,3.73
94,291.7,0.0500,-67.60,16.71
95,295.1,0.0500,-67.42,9.97
96,298.5,0.0500,-68.27,11.30
97,302.0,0.0500,-66.84,12.14
98,305.5,0.0500,-66.16,14.21
99,309.0,0.0500,-66.54,-0.59
100,312.6,0.0500,-66.09,7.17
101,316.2,0.0500,-66.43,5.66
102,319.9,0.0500,-66.84,10.70
103,323.6,0.0500,-66.79,3.10
104,327.3,0.0500,-66.36,9.92
105,331.1,0.0500,-65.31,3.55
106,335.0,0.0500,-66.31,6.61
107,338.8,0.0500,-65.85,0.50
108,342.8,0.0500,-65.31,6.81
109,346.7,0.0500,-66.93,13.90
110,350.8,0.0500,-66.17,12.21
111,354.8,0.0500,-65.90,2.66
112,358.9,0.0500,-67.12,7.34
113,363.1,0.0500,-66.75,11.46
114,367.3,0.0500,-66.86,0.58
115,371.5,0.0500,-66.50,7.97
116,375.8,0.0500,-66.75,7.18
117,380.2,0.0500,-66.16,15.01
118,384.6,0.0500,-66.16,10.25
119,389.0,0.0500,-66.59,12.95
120,393.6,0.0500,-65.78,9.24
121,398.1,0.0500,-67.11,8.69
122,402.7,0.0500,-66.07,14.74
123,407.4,0.0500,-66.80,11.40
124,412.1,0.0500,-66.28,10.67
125,416.9,0.0500,-66.57,5.42
126,421.7,0.0500,-67.24,11.98
127,426.6,0.0500,-66.97,15.63
128,431.5,0.0500,-66.40,13.12
129,436.5,0.0500,-66.02,17.01
130,441.6,0.0500,-67.03,7.65
131,446.7,0.0500,-66.71,20.67
132,451.9,0.0500,-68.57,23.57
133,457.1,0.0500,-66.93,13.42
134,462.4,0.0500,-66.28,11.83
135,467.7,0.0500,-66.35,4.07
136,473.2,0.0500,-67.01,4.45
137,478.6,0.0500,-65.63,14.93
138,484.2,0.0500,-66.40,4.50
139,489.8,0.0500,-65.39,12.41
140,495.5,0.0500,-66.09,19.19
141,501.2,0.0500,-66.06,20.97
142,507.0,0.0500,-65.97,14.07
143,512.9,0.0500,-67.74,17.22
144,518.8,0.0500,-65.60,16.15
145,524.8,0.0500,-67.10,13.56
146,530.9,0.0500,-65.36,8.86
147,537.0,0.0500,-65.52,17.19
148,543.3,0.0500,-66.75,9.24
149,549.5,0.0500,-65.82,8.66
150,555.9,0.0500,-65.48,10.52
151,562.3,0.0500,-65.21,14.22
152,568.9,0.0500,-66.12,16.52
153,575.4,0.0500,-66.51,14.66
154,582.1,0.0500,-65.69,17.78
155,588.8,0.0500,-66.59,18.44
156,595.7,0.0500,-66.64,13.40
157,602.6,0.0500,-65.19,10.84
158,609.5,0.0500,-66.29,18.48
159,616.6,0.0500,-68.16,18.08
160,623.7,0.0500,-66.46,8.37
161,631.0,0.0500,-65.82,20.28
162,638.3,0.0500,-65.37,12.51
163,645.7,0.0500,-65.31,16.65
164,653.1,0.0500,-65.46,10.20
165,660.7,0.0500,-66.43,18.62
166,668.3,0.0500,-66.29,3.83
167,676.1,0.0500,-66.22,22.20
168,683.9,0.0500,-65.48,11.30
169,691.8,0.0500,-66.25,14.35
170,699.8,0.0500,-65.82,38.31
171,707.9,0.0500,-67.09,-8.42
172,716.1,0.0500,-64.81,22.63
173,724.4,0.0500,-65.08,17.82
174,732.8,0.0500,-65.11,36.15
175,741.3,0.0500,-62.48,8.89
176,749.9,0.0500,-65.16,11.81
177,758.6,0.0500,-64.87,4.04
178,767.4,0.0500,-66.56,22.57
179,776.2,0.0500,-65.77,1.24
180,785.2,0.0500,-65.30,22.55
181,794.3,0.0500,-66.60,6.64
182,803.5,0.0500,-65.07,13.62
183,812.8,0.0500,-65.57,12.91
184,822.2,0.0500,-64.97,26.01
185,831.8,0.0500,-65.15,26.28
186,841.4,0.0500,-65.55,17.49
187,851.1,0.0500,-65.09,18.52
188,861.0,0.0500,-65.17,23.14
189,871.0,0.0500,-65.52,23.30
190,881.0,0.0500,-64.87,21.16
191,891.3,0.0500,-64.49,19.31
192,901.6,0.0500,-64.52,19.88
193,912.0,0.0500,-65.35,25.32
194,922.6,0.0500,-67.89,13.95
195,933.3,0.0500,-65.41,20.29
196,944.1,0.0500,-65.24,26.52
197,955.0,0.0500,-64.37,24.22
198,966.1,0.0500,-64.79,32.54
199,977.2,0.0500,-65.39,28.39
200,988.6,0.0500,-67.16,16.98
201,1000.0,0.0500,-63.70,21.05
202,1011.6,0.0500,-63.69,35.13
203,1023.3,0.0500,-62.96,40.87
204,1035.1,0.0500,-65.61,26.49
205,1047.1,0.0500,-65.09,23.66
206,1059.3,0.0500,-66.13,18.57
207,1071.5,0.0500,-63.40,19.94
208,1083.9,0.0500,-68.77,40.65
209,1096.5,0.0500,-64.65,14.25
210,1109.2,0.0500,-64.80,19.74
211,1122.0,0.0500,-63.36,35.45
212,1135.0,0.0500,-64.80,18.71
213,1148.2,0.0500,-64.51,28.27
214,1161.4,0.0500,-64.68,20.52
215,1174.9,0.0500,-63.36,28.33
216,1188.5,0.0500,-65.13,25.31
217,1202.3,0.0500,-63.68,24.97
218,1216.2,0.0500,-63.30,23.62
219,1230.3,0.0500,-65.40,33.82
220,1244.5,0.0500,-65.01,29.07
221,1258.9,0.0500,-65.75,15.83
222,1273.5,0.0500,-64.45,30.55
223,1288.2,0.0500,-64.34,32.82
224,1303.2,0.0500,-64.67,25.31
225,1318.3,0.0500,-62.78,29.70
226,1333.5,0.0500,-64.14,31.80
227,1349.0,0.0500,-64.51,29.92
228,1364.6,0.0500,-62.92,24.53
229,1380.4,0.0500,-63.88,30.15
230,1396.4,0.0500,-63.35,26.49
231,1412.5,0.0500,-63.33,22.35
232,1428.9,0.0500,-65.22,14.93
233,1445.4,0.0500,-63.67,27.14
234,1462.2,0.0500,-63.50,16.39
235,1479.1,0.0500,-63.32,27.85
236,1496.2,0.0500,-63.68,20.50
237,1513.6,0.0500,-64.28,25.73
238,1531.1,0.0500,-68.27,36.66
239,1548.8,0.0500,-63.01,28.62
240,1566.8,0.0500,-62.92,28.62
241,1584.9,0.0500,-61.84,48.21
242,1603.2,0.0500,-62.56,34.69
243,1621.8,0.0500,-64.85,52.65
244,1640.6,0.0500,-68.35,58.11
245,1659.6,0.0500,-60.92,40.57
246,1678.8,0.0500,-61.76,-1.93
247,1698.2,0.0500,-62.53,-2.18
248,1717.9,0.0500,-62.69,32.38
249,1737.8,0.0500,-63.11,22.30
250,1757.9,0.0500,-61.29,32.68
251,1778.3,0.0500,-60.30,21.04
252,1798.9,0.0500,-66.96,35.16
253,1819.7,0.0500,-59.25,58.80
254,1840.8,0.0500,-62.99,44.87
255,1862.1,0.0500,-69.13,68.01
256,1883.6,0.0500,-62.43,34.09
257,1905.5,0.0500,-61.81,34.88
258,1927.5,0.0500,-64.51,40.38
259,1949.8,0.0500,-58.28,22.46
260,1972.4,0.0500,-63.54,36.66
261,1995.3,0.0500,-64.49,26.63
262,2018.4,0.0500,-62.82,33.78
263,2041.7,0.0500,-64.09,34.20
264,2065.4,0.0500,-63.60,35.26
265,2089.3,0.0500,-62.22,33.99
266,2113.5,0.0500,-63.11,39.07
267,2138.0,0.0500,-63.10,42.59
268,2162.7,0.0500,-63.39,36.89
269,2187.8,0.0500,-63.10,40.72
270,2213.1,0.0500,-63.45,32.92
271,2238.7,0.0500,-62.67,28.40
272,2264.6,0.0500,-63.12,33.40
273,2290.9,0.0500,-64.98,29.50
274,2317.4,0.0500,-61.32,34.70
275,2344.2,0.0500,-63.07,23.56
276,2371.4,0.0500,-62.75,35.29
277,2398.8,0.0500,-62.14,28.04
278,2426.6,0.0500,-61.25,38.42
279,2454.7,0.0500,-61.74,43.36
280,2483.1,0.0500,-65.15,41.97
281,2511.9,0.0500,-64.98,40.09
282,2541.0,0.0500,-62.37,40.80
283,2570.4,0.0500,-62.09,36.62
284,2600.2,0.0500,-62.15,34.23
285,2630.3,0.0500,-62.31,41.77
286,2660.7,0.0500,-61.04,37.53
287,2691.5,0.0500,-62.77,42.15
288,2722.7,0.0500,-63.43,28.03
289,2754.2,0.0500,-62.03,37.00
290,2786.1,0.0500,-62.72,40.81
291,2818.4,0.0500,-62.30,39.40
292,2851.0,0.0500,-61.64,44.32
293,2884.0,0.0500,-60.92,42.99
294,2917.4,0.0500,-60.91,38.71
295,2951.2,0.0500,-61.23,40.76
296,2985.4,0.0500,-61.01,43.67
297,3020.0,0.0500,-60.97,39.96
298,3054.9,0.0500,-60.60,45.95
299,3090.3,0.0500,-59.62,47.19
300,3126.1,0.0500,-61.35,43.08
301,3162.3,0.0500,-61.74,44.88
302,3198.9,0.0500,-62.03,32.63
303,3235.9,0.0500,-61.16,41.89
304,3273.4,0.0500,-60.95,39.48
305,3311.3,0.0500,-61.26,38.60
306,3349.7,0.0500,-60.02,31.35
307,3388.4,0.0500,-60.55,45.97
308,3427.7,0.0500,-60.83,43.12
309,3467.4,0.0500,-61.47,33.43
310,3507.5,0.0500,-61.59,57.75
311,3548.1,0.0500,-60.20,46.82
312,3589.2,0.0500,-61.25,38.77
313,3630.8,0.0500,-59.54,47.76
314,3672.8,0.0500,-61.50,46.97
315,3715.4,0.0500,-61.82,25.41
316,3758.4,0.0500,-62.10,46.23
317,3801.9,0.0500,-60.75,47.55
318,3845.9,0.0500,-59.27,46.93
319,3890.5,0.0500,-60.29,50.18
320,3935.5,0.0500,-59.55,46.21
321,3981.1,0.0500,-59.31,29.78
322,4027.2,0.0500,-62.63,45.33
323,4073.8,0.0500,-60.51,47.56
324,4121.0,0.0500,-60.05,39.60
325,4168.7,0.0500,-60.82,39.89
326,4217.0,0.0500,-60.76,46.36
327,4265.8,0.0500,-60.14,43.26
328,4315.2,0.0500,-59.64,48.76
329,4365.2,0.0500,-59.98,42.05
330,4415.7,0.0500,-59.39,45.15
331,4466.8,0.0500,-59.61,46.64
332,4518.6,0.0500,-59.95,45.39
333,4570.9,0.0500,-59.31,46.04
334,4623.8,0.0500,-58.79,48.39
335,4677.4,0.0500,-59.06,51.64
336,4731.5,0.0500,-60.04,44.82
337,4786.3,0.0500,-59.49,44.19
338,4841.7,0.0500,-59.19,52.04
339,4897.8,0.0500,-59.49,48.35
340,4954.5,0.0500,-59.15,43.82
341,5011.9,0.0500,-60.90,41.89
342,5069.9,0.0500,-58.99,47.04
343,5128.6,0.0500,-58.78,45.53
344,5188.0,0.0500,-59.54,47.55
345,5248.1,0.0500,-59.13,49.65
346,5308.8,0.0500,-58.64,47.80
347,5370.3,0.0500,-59.56,53.46
348,5432.5,0.0500,-59.26,44.85
349,5495.4,0.0500,-59.50,57.28
350,5559.0,0.0500,-58.59,52.30
351,5623.4,0.0500,-58.45,45.96
352,5688.5,0.0500,-58.48,41.86
353,5754.4,0.0500,-57.89,46.34
354,5821.0,0.0500,-58.48,50.17
355,5888.4,0.0500,-58.14,49.67
356,5956.6,0.0500,-58.27,46.71
357,6025.6,0.0500,-57.57,50.53
358,6095.4,0.0500,-57.57,55.71
359,6166.0,0.0500,-57.67,51.21
360,6237.3,0.0500,-58.21,48.83
361,6309.6,0.0500,-57.63,50.70
362,6382.6,0.0500,-58.17,45.24
363,6456.5,0.0500,-58.35,52.21
364,6531.3,0.0500,-57.72,46.62
365,6606.9,0.0500,-58.10,50.12
366,6683.4,0.0500,-57.09,53.03
367,6760.8,0.0500,-57.17,55.18
368,6839.1,0.0500,-58.29,51.80
369,6918.3,0.0500,-56.91,48.85
370,6998.4,0.0500,-56.86,46.70
371,7079.5,0.0500,-57.51,48.07
372,7161.4,0.0500,-58.08,51.23
373,7244.4,0.0500,-56.97,51.01
374,7328.2,0.0500,-57.54,47.87
375,7413.1,0.0500,-57.77,56.92
376,7498.9,0.0500,-56.24,49.33
377,7585.8,0.0500,-57.06,49.71
378,7673.6,0.0500,-57.16,47.33
379,7762.5,0.0500,-57.00,50.63
380,7852.4,0.0500,-57.04,54.41
381,7943.3,0.0500,-56.55,51.28
382,8035.3,0.0500,-56.99,49.75
383,8128.3,0.0500,-56.33,53.32
384,8222.4,0.0500,-56.65,54.36
385,8317.6,0.0500,-56.51,50.77
386,8414.0,0.0500,-56.51,53.13
387,8511.4,0.0500,-57.64,52.54
388,8609.9,0.0500,-56.58,53.22
389,8709.6,0.0500,-56.21,50.56
390,8810.5,0.0500,-56.65,55.13
391,8912.5,0.0500,-56.06,54.53
392,9015.7,0.0500,-55.82,56.82
393,9120.1,0.0500,-55.73,52.63
394,9225.7,0.0500,-55.71,53.66
395,9332.5,0.0500,-55.93,51.20
396,9440.6,0.0500,-56.11,51.41
397,9549.9,0.0500,-55.86,53.60
398,9660.5,0.0500,-56.10,50.46
399,9772.4,0.0500,-56.13,51.45
400,9885.5,0.0500,-55.19,52.37
401,10000.0,0.0500,-55.34,55.69
402,10115.8,0.0500,-56.07,52.95
403,10232.9,0.0500,-55.79,54.40
404,10351.4,0.0500,-55.56,52.25
405,10471.3,0.0500,-55.54,54.30
406,10592.5,0.0500,-55.50,53.90
407,10715.2,0.0500,-55.34,51.36
408,10839.3,0.0500,-55.68,51.77
409,10964.8,0.0500,-55.52,52.78
410,11091.7,0.0500,-55.11,53.29
411,11220.2,0.0500,-55.27,54.04
412,11350.1,0.0500,-54.98,55.42
413,11481.5,0.0500,-55.18,56.04
414,11614.5,0.0500,-54.56,55.91
415,11749.0,0.0500,-55.39,56.33
416,11885.0,0.0500,-54.81,55.52
417,12022.6,0.0500,-54.71,53.31
418,12161.9,0.0500,-55.06,53.96
419,12302.7,0.0500,-54.91,54.16
420,12445.1,0.0500,-54.70,57.26
421,12589.3,0.0500,-54.64,56.39
422,12735.0,0.0500,-54.64,54.57
423,12882.5,0.0500,-53.84,54.42
424,13031.7,0.0500,-54.31,56.54
425,13182.6,0.0500,-54.06,55.92
426,13335.2,0.0500,-54.50,55.70
427,13489.6,0.0500,-55.17,56.54
428,13645.8,0.0500,-54.09,54.83
429,13803.8,0.0500,-54.01,57.08
430,13963.7,0.0500,-54.28,56.32
431,14125.4,0.0500,-53.78,56.58
432,14288.9,0.0500,-53.63,62.27
433,14454.4,0.0500,-53.65,59.01
434,14621.8,0.0500,-53.93,56.43
435,14791.1,0.0500,-53.68,55.96
436,14962.4,0.0500,-53.48,56.01
437,15135.6,0.0500,-53.53,56.96
438,15310.9,0.0500,-53.54,57.94
439,15488.2,0.0500,-53.36,59.32
440,15667.5,0.0500,-53.37,58.49
441,15848.9,0.0500,-53.29,58.87
442,16032.5,0.0500,-53.44,57.88
443,16218.1,0.0500,-53.06,58.25
444,16405.9,0.0500,-52.88,57.08
445,16595.9,0.0500,-52.95,57.65
446,16788.0,0.0500,-52.89,57.62
447,16982.4,0.0500,-52.69,57.03
448,17179.1,0.0500,-52.92,58.22
449,17378.0,0.0500,-52.66,60.21
450,17579.2,0.0500,-52.68,56.80
451,17782.8,0.0500,-52.71,60.29
452,17988.7,0.0500,-52.57,56.06
453,18197.0,0.0500,-52.34,59.44
454,18407.7,0.0500,-52.22,59.63
455,18620.9,0.0500,-52.41,58.45
456,18836.5,0.0500,-52.13,59.82
457,19054.6,0.0500,-52.08,60.91
458,19275.2,0.0500,-52.19,60.94
459,19498.4,0.0500,-52.15,59.08
460,19724.2,0.0500,-51.90,61.14
461,19952.6,0.0500,-51.99,59.99
462,20183.7,0.0500,-51.63,60.95
463,20417.4,0.0500,-51.67,61.53
464,20653.8,0.0500,-51.56,60.01
465,20893.0,0.0500,-51.99,60.82
466,21134.9,0.0500,-51.56,61.07
467,21379.6,0.0500,-51.44,61.47
468,21627.2,0.0500,-51.60,60.21
469,21877.6,0.0500,-51.23,60.84
470,22130.9,0.0500,-51.38,60.60
471,22387.2,0.0500,-51.37,63.05
472,22646.4,0.0500,-51.23,59.74
473,22908.7,0.0500,-51.10,61.66
474,23173.9,0.0500,-50.91,61.21
475,23442.3,0.0500,-50.84,62.55
476,23713.7,0.0500,-50.59,60.77
477,23988.3,0.0500,-50.55,62.31
478,24266.1,0.0500,-50.72,62.46
479,24547.1,0.0500,-50.72,62.81
480,24831.3,0.0500,-50.60,63.79
481,25118.9,0.0500,-50.62,62.92
482,25409.7,0.0500,-50.45,63.56
483,25704.0,0.0500,-50.36,63.16
484,26001.6,0.0500,-50.41,62.96
485,26302.7,0.0500,-50.21,63.09
486,26607.3,0.0500,-50.14,62.33
487,26915.3,0.0500,-50.07,63.55
488,27227.0,0.0500,-50.09,63.03
489,27542.3,0.0500,-49.95,62.31
490,27861.2,0.0500,-49.98,62.63
491,28183.8,0.0500,-49.75,62.95
492,28510.2,0.0500,-49.63,65.64
493,28840.3,0.0500,-49.52,62.00
494,29174.3,0.0500,-49.64,62.89
495,29512.1,0.0500,-49.52,64.32
496,29853.8,0.0500,-49.76,63.15
497,30199.5,0.0500,-49.32,64.63
498,30549.2,0.0500,-49.38,65.76
499,30903.0,0.0500,-49.44,65.07
500,31260.8,0.0500,-48.93,64.50
501,31622.8,0.0500,-48.91,65.67
502,31989.0,0.0500,-48.99,65.19
503,32359.4,0.0500,-48.99,65.43
504,32734.1,0.0500,-48.81,64.47
505,33113.1,0.0500,-48.84,64.14
506,33496.5,0.0500,-48.76,66.00
507,33884.4,0.0500,-48.32,64.52
508,34276.8,0.0500,-48.55,66.23
509,34673.7,0.0500,-48.59,65.89
510,35075.2,0.0500,-48.42,66.28
511,35481.3,0.0500,-48.18,66.56
512,35892.2,0.0500,-48.18,64.72
513,36307.8,0.0500,-48.32,66.37
514,36728.2,0.0500,-48.17,66.93
515,37153.5,0.0500,-48.00,65.77
516,37583.7,0.0500,-47.95,67.62
517,38018.9,0.0500,-48.05,66.60
518,38459.2,0.0500,-47.75,66.76
519,38904.5,0.0500,-47.78,67.09
520,39355.0,0.0500,-47.60,66.47
521,39810.7,0.0500,-47.68,68.14
522,40271.7,0.0500,-47.66,67.83
523,40738.0,0.0500,-47.52,67.55
524,41209.8,0.0500,-47.39,67.17
525,41686.9,0.0500,-47.13,67.33
526,42169.7,0.0500,-46.94,66.16
527,42658.0,0.0500,-46.98,68.35
528,43151.9,0.0500,-46.65,67.54
529,43651.6,0.0500,-46.71,67.37
530,44157.0,0.0500,-46.69,68.30
531,44668.4,0.0500,-46.64,68.98
532,45185.6,0.0500,-46.59,68.47
533,45708.8,0.0500,-46.57,67.64
534,46238.1,0.0500,-46.43,68.10
535,46773.5,0.0500,-46.26,68.91
536,47315.1,0.0500,-46.41,68.50
537,47863.0,0.0500,-46.20,67.22
538,48417.2,0.0500,-45.90,69.28
539,48977.9,0.0500,-45.87,68.21
540,49545.0,0.0500,-46.10,71.61
541,50118.7,0.0500,-45.60,69.93
542,50699.1,0.0500,-45.65,69.02
543,51286.1,0.0500,-45.68,69.41
544,51880.0,0.0500,-45.39,68.82
545,52480.7,0.0500,-45.63,67.83
546,53088.4,0.0500,-45.60,70.36
547,53703.2,0.0500,-44.98,67.89
548,54325.0,0.0500,-45.11,68.98
549,54954.1,0.0500,-45.23,70.25
550,55590.4,0.0500,-44.90,68.89
551,56234.1,0.0500,-44.95,68.02
552,56885.3,0.0500,-44.76,69.62
553,57544.0,0.0500,-44.83,68.48
554,58210.3,0.0500,-44.42,68.20
555,58884.4,0.0500,-44.28,71.10
556,59566.2,0.0500,-44.39,69.73
557,60256.0,0.0500,-44.41,68.75
558,60953.7,0.0500,-44.46,69.84
559,61659.5,0.0500,-44.31,68.72
560,62373.5,0.0500,-44.14,66.83
561,63095.7,0.0500,-44.18,70.50
562,63826.3,0.0500,-43.68,68.94
563,64565.4,0.0500,-43.87,69.80
564,65313.1,0.0500,-44.08,69.62
565,66069.3,0.0500,-43.95,70.47
566,66834.4,0.0500,-43.62,70.42
567,67608.3,0.0500,-43.97,69.96
568,68391.2,0.0500,-43.42,69.28
569,69183.1,0.0500,-43.63,72.16
570,69984.2,0.0500,-43.37,69.56
571,70794.6,0.0500,-43.26,71.19
572,71614.3,0.0500,-43.40,71.94
573,72443.6,0.0500,-43.15,67.85
574,73282.5,0.0500,-43.29,70.43
575,74131.0,0.0500,-43.13,70.73
576,74989.4,0.0500,-42.73,69.83
577,75857.8,0.0500,-42.87,70.74
578,76736.1,0.0500,-42.99,71.42
579,77624.7,0.0500,-42.69,68.85
580,78523.6,0.0500,-42.50,70.01
581,79432.8,0.0500,-42.56,70.11
582,80352.6,0.0500,-42.29,71.17
583,81283.1,0.0500,-42.25,71.19
584,82224.3,0.0500,-42.25,69.47
585,83176.4,0.0500,-42.13,70.69
586,84139.5,0.0500,-42.06,70.86
587,85113.8,0.0500,-41.87,71.62
588,86099.4,0.0500,-41.71,71.08
589,87096.4,0.0500,-41.86,71.70
590,88104.9,0.0500,-41.77,70.34
591,89125.1,0.0500,-41.60,71.07
592,90157.1,0.0500,-41.52,71.09
593,91201.1,0.0500,-41.45,71.62
594,92257.1,0.0500,-41.45,71.59
595,93325.4,0.0500,-41.29,70.43
596,94406.1,0.0500,-41.32,71.15
597,95499.3,0.0500,-41.24,71.79
598,96605.1,0.0500,-40.95,70.80
599,97723.7,0.0500,-40.93,70.54
600,98855.3,0.0500,-40.95,70.73
601,100000.0,0.0500,-40.77,71.75
602,101157.9,0.0500,-40.55,71.04
603,102329.3,0.0500,-40.52,70.84
604,103514.2,0.0500,-40.34,72.65
605,104712.9,0.0500,-40.35,72.99
606,105925.4,0.0500,-40.22,69.44
607,107151.9,0.0500,-40.17,71.25
608,108392.7,0.0500,-40.03,71.16
609,109647.8,0.0500,-39.98,71.00
610,110917.5,0.0500,-39.71,71.62
611,112201.8,0.0500,-39.86,70.57
612,113501.1,0.0500,-39.77,70.95
613,114815.4,0.0500,-39.76,70.09
614,116144.9,0.0500,-39.48,70.60
615,117489.8,0.0500,-39.44,71.77
616,118850.2,0.0500,-39.36,70.96
617,120226.4,0.0500,-39.24,72.99
618,121618.6,0.0500,-39.24,71.49
619,123026.9,0.0500,-39.02,70.85
620,124451.5,0.0500,-39.01,73.26
621,125892.5,0.0500,-38.91,71.45
622,127350.3,0.0500,-38.74,70.54
623,128825.0,0.0500,-38.79,71.75
624,130316.7,0.0500,-38.54,69.47
625,131825.7,0.0500,-38.56,70.85
626,133352.1,0.0500,-38.43,71.15
627,134896.3,0.0500,-38.48,70.95
628,136458.3,0.0500,-38.30,71.76
629,138038.4,0.0500,-38.11,71.22
630,139636.8,0.0500,-38.10,70.64
631,141253.8,0.0500,-37.89,71.13
632,142889.4,0.0500,-37.86,68.09
633,144544.0,0.0500,-37.97,71.62
634,146217.7,0.0500,-37.58,72.14
635,147910.8,0.0500,-37.46,73.42
636,149623.6,0.0500,-37.76,70.58
637,151356.1,0.0500,-37.34,72.94
638,153108.7,0.0500,-37.41,71.60
639,154881.7,0.0500,-37.23,69.65
640,156675.1,0.0500,-37.11,71.41
641,158489.3,0.0500,-36.62,72.77
642,160324.5,0.0500,-38.32,75.04
643,162181.0,0.0500,-36.85,71.25
644,164059.0,0.0500,-36.47,75.45
645,165958.7,0.0500,-36.45,68.54
646,167880.4,0.0500,-36.40,71.18
647,169824.4,0.0500,-37.06,68.50
648,171790.8,0.0500,-35.99,72.86
649,173780.1,0.0500,-36.45,66.08
650,175792.4,0.0500,-36.09,70.93
651,177827.9,0.0500,-36.06,71.61
652,179887.1,0.0500,-35.44,75.58
653,181970.1,0.0500,-35.86,70.85
654,184077.2,0.0500,-35.58,70.62
655,186208.7,0.0500,-35.59,69.97
656,188364.9,0.0500,-35.80,69.80
657,190546.1,0.0500,-35.62,70.54
658,192752.5,0.0500,-35.64,67.25
659,194984.5,0.0500,-35.25,69.91
660,197242.3,0.0500,-34.89,71.72
661,199526.2,0.0500,-34.90,72.44
662,201836.6,0.0500,-35.42,68.68
663,204173.8,0.0500,-34.81,69.08
664,206538.0,0.0500,-34.81,69.06
665,208929.6,0.0500,-34.70,69.17
666,211348.9,0.0500,-34.55,69.77
667,213796.2,0.0500,-34.29,68.70
668,216271.9,0.0500,-34.47,69.14
669,218776.2,0.0500,-34.21,69.31
670,221309.5,0.0500,-33.97,73.23
671,223872.1,0.0500,-34.83,69.89
672,226464.4,0.0500,-34.72,68.58
673,229086.8,0.0500,-34.51,69.20
674,231739.5,0.0500,-33.27,67.78
675,234422.9,0.0500,-33.48,68.40
676,237137.4,0.0500,-33.38,66.14
677,239883.3,0.0500,-33.00,69.28
678,242661.0,0.0500,-33.51,68.58
679,245470.9,0.0500,-33.41,67.06
680,248313.3,0.0500,-32.71,64.90
681,251188.6,0.0500,-33.04,69.91
682,254097.3,0.0500,-33.37,68.69
683,257039.6,0.0500,-32.57,66.97
684,260016.0,0.0500,-32.39,67.75
685,263026.8,0.0500,-32.95,68.47
686,266072.5,0.0500,-32.55,64.12
687,269153.5,0.0500,-32.92,67.17
688,272270.1,0.0500,-32.45,66.06
689,275422.9,0.0500,-32.13,64.44
690,278612.1,0.0500,-32.02,66.67
691,281838.3,0.0500,-31.90,66.39
692,285101.8,0.0500,-31.74,66.53
693,288403.2,0.0500,-31.80,64.51
694,291742.7,0.0500,-31.42,66.28
695,295120.9,0.0500,-31.46,66.14
696,298538.3,0.0500,-31.30,65.71
697,301995.2,0.0500,-31.32,66.19
698,305492.1,0.0500,-31.15,64.87
699,309029.5,0.0500,-30.97,65.10
700,312607.9,0.0500,-30.83,64.78
701,316227.8,0.0500,-30.70,64.41
702,319889.5,0.0500,-30.63,64.42
703,323593.7,0.0500,-30.45,63.68
704,327340.7,0.0500,-30.24,63.12
705,331131.1,0.0500,-30.14,63.42
706,334965.4,0.0500,-30.12,63.42
707,338844.2,0.0500,-29.99,63.15
708,342767.8,0.0500,-29.86,63.24
709,346736.9,0.0500,-30.19,62.19
710,350751.9,0.0500,-29.05,63.65
711,354813.4,0.0500,-30.12,64.65
712,358921.9,0.0500,-29.68,64.77
713,363078.1,0.0500,-28.96,58.92
714,367282.3,0.0500,-29.08,60.67
715,371535.2,0.0500,-29.01,62.03
716,375837.4,0.0500,-28.90,60.55
717,380189.4,0.0500,-28.63,60.77
718,384591.8,0.0500,-28.67,59.88
719,389045.1,0.0500,-28.62,59.73
720,393550.1,0.0500,-28.84,57.19
721,398107.2,0.0500,-28.26,59.82
722,402717.0,0.0500,-28.59,59.21
723,407380.3,0.0500,-28.12,59.30
724,412097.5,0.0500,-27.91,57.78
725,416869.4,0.0500,-27.65,56.23
726,421696.5,0.0500,-27.33,57.88
727,426579.5,0.0500,-27.34,52.89
728,431519.1,0.0500,-27.94,60.13
729,436515.8,0.0500,-27.21,55.55
730,441570.4,0.0500,-27.03,56.34
731,446683.6,0.0500,-26.74,55.14
732,451855.9,0.0500,-26.88,53.18
733,457088.2,0.0500,-26.81,54.97
734,462381.0,0.0500,-26.45,52.22
735,467735.1,0.0500,-26.51,51.11
736,473151.3,0.0500,-26.33,45.75
737,478630.1,0.0500,-26.08,51.97
738,484172.4,0.0500,-25.40,51.58
739,489778.8,0.0500,-25.65,53.13
740,495450.2,0.0500,-24.74,45.67
741,501187.2,0.0500,-25.95,46.34
742,506990.7,0.0500,-25.28,47.98
743,512861.4,0.0500,-25.25,50.55
744,518800.0,0.0500,-25.19,50.82
745,524807.5,0.0500,-25.18,47.33
746,530884.4,0.0500,-25.47,44.75
747,537031.8,0.0500,-24.71,43.11
748,543250.3,0.0500,-24.15,45.31
749,549540.9,0.0500,-25.02,41.45
750,555904.3,0.0500,-23.33,39.68
751,562341.3,0.0500,-24.27,40.90
752,568852.9,0.0500,-22.00,40.16
753,575439.9,0.0500,-23.85,35.24
754,582103.2,0.0500,-23.10,39.83
755,588843.7,0.0500,-23.11,37.11
756,595662.1,0.0500,-22.87,33.58
757,602559.6,0.0500,-22.37,39.57
758,609536.9,0.0500,-21.61,35.56
759,616595.0,0.0500,-23.19,33.71
760,623734.8,0.0500,-22.72,35.05
761,630957.3,0.0500,-22.06,29.97
762,638263.5,0.0500,-22.00,30.04
763,645654.2,0.0500,-22.21,26.29
764,653130.6,0.0500,-21.41,21.49
765,660693.4,0.0500,-21.79,24.72
766,668343.9,0.0500,-22.54,30.27
767,676083.0,0.0500,-21.65,23.29
768,683911.6,0.0500,-21.71,25.71
769,691831.0,0.0500,-20.37,25.55
770,699842.0,0.0500,-21.26,11.69
771,707945.8,0.0500,-20.91,17.98
772,716143.4,0.0500,-21.95,5.91
773,724436.0,0.0500,-20.15,13.46
774,732824.5,0.0500,-20.45,11.39
775,741310.2,0.0500,-19.51,6.49
776,749894.2,0.0500,-20.27,7.56
777,758577.6,0.0500,-20.88,23.15
778,767361.5,0.0500,-20.24,-2.72
779,776247.1,0.0500,-20.13,-3.85
780,785235.6,0.0500,-19.12,-3.61
781,794328.2,0.0500,-19.82,-3.95
782,803526.1,0.0500,-19.93,-8.01
783,812830.5,0.0500,-19.19,-8.16
784,822242.6,0.0500,-19.87,-10.76
785,831763.8,0.0500,-20.28,-13.05
786,841395.1,0.0500,-20.08,-13.84
787,851138.0,0.0500,-22.37,-18.67
788,860993.8,0.0500,-20.73,-23.13
789,870963.6,0.0500,-20.69,-14.69
790,881048.9,0.0500,-20.35,-22.58
791,891250.9,0.0500,-19.59,-25.12
792,901571.1,0.0500,-21.81,-22.66
793,912010.8,0.0500,-20.59,-27.88
794,922571.4,0.0500,-19.71,-33.79
795,933254.3,0.0500,-20.62,-34.04
796,944060.9,0.0500,-20.19,-49.01
797,954992.6,0.0500,-21.93,-40.49
798,966050.9,0.0500,-20.72,-36.00
799,977237.2,0.0500,-21.15,-34.72
800,988553.1,0.0500,-21.70,-41.89
801,1000000.0,0.0500,-21.97,-49.08
802,1011579.5,0.0500,-23.13,-43.47
803,1023293.0,0.0500,-18.33,-51.46
804,1035142.2,0.0500,-22.64,-46.90
805,1047128.5,0.0500,-22.40,-43.79
806,1059253.7,0.0500,-22.29,-53.20
807,1071519.3,0.0500,-22.43,-47.22
808,1083926.9,0.0500,-23.16,-38.96
809,1096478.2,0.0500,-25.20,-49.28
810,1109174.8,0.0500,-22.94,-55.22
811,1122018.5,0.0500,-27.32,-40.03
812,1135010.8,0.0500,-22.63,-52.87
813,1148153.6,0.0500,-24.16,-58.49
814,1161448.6,0.0500,-27.18,-52.85
815,1174897.6,0.0500,-23.07,-67.00
816,1188502.2,0.0500,-24.28,-60.12
817,1202264.4,0.0500,-23.33,-62.12
818,1216186.0,0.0500,-25.71,-68.19
819,1230268.8,0.0500,-23.80,-63.21
820,1244514.6,0.0500,-28.39,-44.02
821,1258925.4,0.0500,-23.49,-59.66
822,1273503.1,0.0500,-24.79,-79.52
823,1288249.6,0.0500,-26.59,-64.67
824,1303166.8,0.0500,-27.89,-78.41
825,1318256.7,0.0500,-26.80,-60.68
826,1333521.4,0.0500,-24.34,-63.21
827,1348962.9,0.0500,-27.81,-69.53
828,1364583.1,0.0500,-27.65,-63.01
829,1380384.3,0.0500,-25.17,-82.28
830,1396368.4,0.0500,-31.23,-94.80
831,1412537.5,0.0500,-28.27,-93.38
832,1428894.0,0.0500,-22.82,-71.42
833,1445439.8,0.0500,-26.72,-94.45
834,1462177.2,0.0500,-28.84,-89.14
835,1479108.4,0.0500,-30.11,-88.34
836,1496235.7,0.0500,-30.99,-63.85
837,1513561.2,0.0500,-27.52,-83.49
838,1531087.5,0.0500,-29.41,-66.59
839,1548816.6,0.0500,-29.15,-86.77
840,1566751.1,0.0500,-33.11,-92.77
841,1584893.2,0.0500,-31.65,-65.73
842,1603245.4,0.0500,-27.28,165.69
843,1621810.1,0.0500,-29.99,-106.96
844,1640589.8,0.0500,-32.85,-107.55
845,1659586.9,0.0500,-32.53,188.14
846,1678804.0,0.0500,-31.35,186.63
847,1698243.7,0.0500,-29.21,-143.14
848,1717908.4,0.0500,-29.30,-36.46
849,1737800.8,0.0500,-39.32,0.04
850,1757923.6,0.0500,-33.87,-44.55
851,1778279.4,0.0500,-28.19,-56.24
852,1798870.9,0.0500,-32.94,-25.18
853,1819700.9,0.0500,-27.89,30.77
854,1840772.0,0.0500,-26.24,60.47
855,1862087.1,0.0500,-25.85,-2.38
856,1883649.1,0.0500,-29.52,-60.66
857,1905460.7,0.0500,-27.53,-31.57
858,1927524.9,0.0500,-26.70,-35.53
859,1949844.6,0.0500,-27.63,-45.33
860,1972422.7,0.0500,-25.69,-43.00
861,1995262.3,0.0500,-31.18,-51.00
862,2018366.4,0.0500,-30.57,-64.69
863,2041737.9,0.0500,-27.81,-40.62
864,2065380.2,0.0500,-27.71,-85.06
865,2089296.1,0.0500,-28.77,-73.75
866,2113489.0,0.0500,-27.90,-3.03
867,2137962.1,0.0500,-20.85,-59.48
868,2162718.5,0.0500,-29.03,-71.81
869,2187761.6,0.0500,-22.43,-147.64
870,2213094.7,0.0500,-28.69,-12.84
871,2238721.1,0.0500,-35.40,-100.10
872,2264644.3,0.0500,-28.70,-64.84
873,2290867.7,0.0500,-28.92,-72.73
874,2317394.6,0.0500,-26.32,-106.83
875,2344228.8,0.0500,-26.73,-62.04
876,2371373.7,0.0500,-30.38,-100.76
877,2398832.9,0.0500,-30.88,-60.39
878,2426610.1,0.0500,-30.91,-89.35
879,2454708.9,0.0500,-33.28,-88.72
880,2483133.1,0.0500,-30.06,-115.03
881,2511886.4,0.0500,-32.81,-96.32
882,2540972.7,0.0500,-32.95,-105.11
883,2570395.8,0.0500,-31.82,-45.20
884,2600159.6,0.0500,-32.41,-93.69
885,2630268.0,0.0500,-21.93,-111.47
886,2660725.1,0.0500,-33.96,-53.72
887,2691534.8,0.0500,-32.98,-94.46
888,2722701.3,0.0500,-44.71,-49.52
889,2754228.7,0.0500,-36.23,-11.64
890,2786121.2,0.0500,-36.34,-122.39
891,2818382.9,0.0500,-38.82,-96.61
892,2851018.3,0.0500,-34.29,-69.13
893,2884031.5,0.0500,-41.54,-75.48
894,2917427.0,0.0500,-38.89,-96.09
895,2951209.2,0.0500,-36.04,-83.74
896,2985382.6,0.0500,-42.69,-18.56
897,3019951.7,0.0500,-40.51,-100.75
898,3054921.1,0.0500,-34.68,-61.39
899,3090295.4,0.0500,-38.04,-84.07
900,3126079.4,0.0500,-36.42,-98.22
901,3162277.7,0.0500,-30.97,-148.92
902,3198895.1,0.0500,-36.88,-64.13
903,3235936.6,0.0500,-38.16,-105.80
904,3273406.9,0.0500,-26.40,-72.53
905,3311311.2,0.0500,-37.71,-73.45
906,3349654.4,0.0500,-41.46,-130.62
907,3388441.6,0.0500,-36.11,-89.36
908,3427677.9,0.0500,-35.72,-98.45
909,3467368.5,0.0500,-40.74,-40.64
910,3507518.7,0.0500,-39.62,-105.08
911,3548133.9,0.0500,-38.07,-82.75
912,3589219.3,0.0500,-46.44,-156.54
913,3630780.5,0.0500,-37.07,-92.28
914,3672823.0,0.0500,-43.15,-111.09
915,3715352.3,0.0500,-37.12,94.19
916,3758374.0,0.0500,-43.57,-79.53
917,3801894.0,0.0500,-48.55,-165.27
918,3845917.8,0.0500,-29.89,-65.45
919,3890451.4,0.0500,-28.38,-10.61
920,3935500.8,0.0500,-43.79,-83.97
921,3981071.7,0.0500,-44.67,-89.01
922,4027170.3,0.0500,-45.47,-103.72
923,4073802.8,0.0500,-42.76,-141.86
924,4120975.2,0.0500,-44.91,-91.05
925,4168693.8,0.0500,-46.33,-150.97
926,4216965.0,0.0500,-40.92,-80.67
927,4265795.2,0.0500,-41.23,-116.54
928,4315190.8,0.0500,-40.65,-85.92
929,4365158.3,0.0500,-44.04,-74.15
930,4415704.5,0.0500,-53.74,-132.95
931,4466835.9,0.0500,-42.30,-127.50
932,4518559.4,0.0500,-50.88,-116.48
933,4570881.9,0.0500,-51.28,-69.15
934,4623810.2,0.0500,-50.97,-23.97
935,4677351.4,0.0500,-51.16,-28.20
936,4731512.6,0.0500,-50.21,-69.03
937,4786300.9,0.0500,-42.51,84.37
938,4841723.7,0.0500,-38.28,-6.00
939,4897788.2,0.0500,-49.06,-52.56
940,4954501.9,0.0500,-50.61,176.49
941,5011872.3,0.0500,-47.77,146.71
942,5069907.1,0.0500,-47.39,11.96
943,5128613.8,0.0500,-50.55,-104.62
944,5188000.4,0.0500,-60.65,188.71
945,5248074.6,0.0500,-45.65,-72.54
946,5308844.4,0.0500,-55.93,-23.34
947,5370318.0,0.0500,-50.98,-57.26
948,5432503.3,0.0500,-47.80,24.60
949,5495408.7,0.0500,-50.15,84.32
950,5559042.6,0.0500,-52.70,109.30
951,5623413.3,0.0500,-43.93,89.91
952,5688529.3,0.0500,-45.32,19.64
953,5754399.4,0.0500,-54.19,28.35
954,5821032.2,0.0500,-38.84,40.12
955,5888436.6,0.0500,-41.07,24.65
956,5956621.4,0.0500,-39.13,96.24
957,6025595.9,0.0500,-42.55,66.40
958,6095369.0,0.0500,-49.26,38.69
959,6165950.0,0.0500,-48.14,22.65
960,6237348.4,0.0500,-42.81,82.45
961,6309573.4,0.0500,-48.04,100.72
962,6382634.9,0.0500,-38.76,44.37
963,6456542.3,0.0500,-48.48,52.33
964,6531305.5,0.0500,-41.61,52.98
965,6606934.5,0.0500,-48.32,150.26
966,6683439.2,0.0500,-42.22,37.53
967,6760829.8,0.0500,-43.38,31.26
968,6839116.5,0.0500,-41.07,41.52
969,6918309.7,0.0500,-46.40,6.71
970,6998420.0,0.0500,-35.61,48.62
971,7079457.8,0.0500,-39.07,42.20
972,7161434.1,0.0500,-38.30,73.29
973,7244359.6,0.0500,-35.53,35.66
974,7328245.3,0.0500,-35.02,51.44
975,7413102.4,0.0500,-36.34,42.15
976,7498942.1,0.0500,-34.48,48.23
977,7585775.8,0.0500,-28.82,-41.38
978,7673614.9,0.0500,-33.96,43.48
979,7762471.2,0.0500,-35.54,42.48
980,7852356.3,0.0500,-29.32,60.42
981,7943282.3,0.0500,-35.88,32.83
982,8035261.2,0.0500,-35.16,36.96
983,8128305.2,0.0500,-38.77,-13.46
984,8222426.5,0.0500,-31.03,34.71
985,8317637.7,0.0500,-34.42,19.69
986,8413951.4,0.0500,-32.97,31.96
987,8511380.4,0.0500,-31.63,24.59
988,8609937.5,0.0500,-33.79,15.19
989,8709635.9,0.0500,-33.19,24.35
990,8810488.7,0.0500,-32.24,24.65
991,8912509.4,0.0500,-33.32,20.67
992,9015711.4,0.0500,-33.21,14.03
993,9120108.4,0.0500,-31.02,24.50
994,9225714.3,0.0500,-32.11,5.26
995,9332543.0,0.0500,-31.97,14.04
996,9440608.8,0.0500,-30.74,31.44
997,9549925.9,0.0500,-30.65,8.79
998,9660508.8,0.0500,-30.54,14.82
999,9772372.2,0.0500,-29.14,4.49
1000,9885530.9,0.0500,-32.28,1.19
1001,10000000.0,0.0500,-31.67,-13.09
