#, Frequency (Hz), Amplitude (Vpp), Gain (dB), Phase (°)
1,100.0,0.0500,-71.68,-16.09
2,101.2,0.0500,-72.10,-10.14
3,102.3,0.0500,-71.89,-14.63
4,103.5,0.0500,-70.69,9.78
5,104.7,0.0500,-71.50,1.19
6,105.9,0.0500,-72.86,-3.03
7,107.2,0.0500,-69.82,-2.16
8,108.4,0.0500,-72.19,-15.27
9,109.6,0.0500,-70.66,-2.79
10,110.9,0.0500,-69.80,2.23
11,112.2,0.0500,-69.84,4.19
12,113.5,0.0500,-70.15,-8.37
13,114.8,0.0500,-71.96,-4.74
14,116.1,0.0500,-71.93,1.07
15,117.5,0.0500,-73.12,-12.26
16,118.9,0.0500,-69.67,3.61
17,120.2,0.0500,-71.09,-7.76
18,121.6,0.0500,-71.56,-19.97
19,123.0,0.0500,-70.50,-1.11
20,124.5,0.0500,-72.81,3.00
21,125.9,0.0500,-69.89,7.68
22,127.4,0.0500,-71.74,10.80
23,128.8,0.0500,-71.63,-0.70
24,130.3,0.0500,-70.65,1.69
25,131.8,0.0500,-73.26,6.09
26,133.4,0.0500,-70.79,-11.11
27,134.9,0.0500,-71.47,11.58
28,136.5,0.0500,-70.17,-3.73
29,138.0,0.0500,-71.27,-1.46
30,139.6,0.0500,-69.20,4.11
31,141.3,0.0500,-71.47,2.26
32,142.9,0.0500,-71.41,8.53
33,144.5,0.0500,-71.16,-3.23
34,146.2,0.0500,-72.19,5.48
35,147.9,0.0500,-71.68,22.27
36,149.6,0.0500,-69.82,15.88
37,151.4,0.0500,-71.38,-11.41
38,153.1,0.0500,-72.82,-6.20
39,154.9,0.0500,-70.02,-6.60
40,156.7,0.0500,-71.08,5.30
41,158.5,0.0500,-74.07,12.66
42,160.3,0.0500,-70.60,9.20
43,162.2,0.0500,-73.04,5.81
44,164.1,0.0500,-71.53,-8.29
45,166.0,0.0500,-72.84,-6.46
46,167.9,0.0500,-71.07,7.37
47,169.8,0.0500,-72.13,-2.55
48,171.8,0.0500,-69.24,-2.39
49,173.8,0.0500,-69.30,-4.91
50,175.8,0.0500,-72.76,9.71
51,177.8,0.0500,-72.15,-0.17
52,179.9,0.0500,-72.08,7.06
53,182.0,0.0500,-71.45,-13.34
54,184.1,0.0500,-73.67,-0.84
55,186.2,0.0500,-71.02,-7.99
56,188.4,0.0500,-70.16,2.04
57,190.5,0.0500,-70.59,11.62
58,192.8,0.0500,-70.46,14.98
59,195.0,0.0500,-71.18,-1.17
60,197.2,0.0500,-69.61,8.70
61,199.5,0.0500,-72.42,7.15
62,201.8,0.0500,-71.29,11.39
63,204.2,0.0500,-70.52,-12.44
64,206.5,0.0500,-71.17,0.35
65,208.9,0.0500,-69.74,3.29
66,211.3,0.0500,-70.44,-1.41
67,213.8,0.0500,-71.80,6.42
68,216.3,0.0500,-71.58,-8.31
69,218.8,0.0500,-69.27,-4.83
70,221.3,0.0500,-69.96,2.01
71,223.9,0.0500,-69.17,-2.89
72,226.5,0.0500,-70.43,4.26
73,229.1,0.0500,-70.22,-0.99
74,231.7,0.0500,-70.16,-7.49
75,234.4,0.0500,-70.40,10.91
76,237.1,0.0500,-69.86,6.88
77,239.9,0.0500,-71.28,2.84
78,242.7,0.0500,-69.19,4.37
79,245.5,0.0500,-71.59,5.50
80,248.3,0.0500,-71.03,6.53
81,251.2,0.0500,-68.33,-5.20
82,254.1,0.0500,-71.81,13.37
83,257.0,0.0500,-72.08,6.97
84,260.0,0.0500,-73.53,27.20
85,263.0,0.0500,-71.14,16.65
86,266.1,0.0500,-72.83,9.14
87,269.2,0.0500,-72.45,4.41
88,272.3,0.0500,-73.12,-25.55
89,275.4,0.0500,-70.26,11.37
90,278.6,0.0500,-70.17,18.87
91,281.8,0.0500,-72.16,7.53
92,285.1,0.0500,-71.04,3.33
93,288.4,0.0500,-69.52,2.16
94,291.7,0.0500,-72.20,2.45
95,295.1,0.0500,-70.09,12.04
96,298.5,0.0500,-69.86,3.76
97,302.0,0.0500,-69.61,-0.94
98,305.5,0.0500,-70.53,1.22
99,309.0,0.0500,-71.40,9.99
100,312.6,0.0500,-70.43,6.56
101,316.2,0.0500,-70.11,9.39
102,319.9,0.0500,-69.30,-5.89
103,323.6,0.0500,-69.26,19.20
104,327.3,0.0500,-72.57,17.19
105,331.1,0.0500,-70.73,9.46
106,335.0,0.0500,-72.16,2.56
107,338.8,0.0500,-70.40,-1.76
108,342.8,0.0500,-72.72,7.81
109,346.7,0.0500,-70.42,-2.84
110,350.8,0.0500,-69.15,-4.17
111,354.8,0.0500,-70.45,10.92
112,358.9,0.0500,-68.80,7.24
113,363.1,0.0500,-72.38,-0.80
114,367.3,0.0500,-69.70,4.32
115,371.5,0.0500,-68.68,-0.65
116,375.8,0.0500,-70.69,17.74
117,380.2,0.0500,-69.79,10.32
118,384.6,0.0500,-70.25,-2.08
119,389.0,0.0500,-70.09,-2.74
120,393.6,0.0500,-70.24,8.32
121,398.1,0.0500,-70.02,5.47
122,402.7,0.0500,-69.34,9.19
123,407.4,0.0500,-68.32,0.27
124,412.1,0.0500,-70.50,-7.71
125,416.9,0.0500,-71.93,6.22
126,421.7,0.0500,-71.10,15.10
127,426.6,0.0500,-69.71,12.26
128,431.5,0.0500,-70.62,1.76
129,436.5,0.0500,-71.70,-9.26
130,441.6,0.0500,-71.28,1.97
131,446.7,0.0500,-72.09,13.47
132,451.9,0.0500,-72.59,-0.84
133,457.1,0.0500,-70.99,9.31
134,462.4,0.0500,-69.98,3.54
135,467.7,0.0500,-71.31,13.33
136,473.2,0.0500,-71.19,-2.63
137,478.6,0.0500,-69.90,-2.99
138,484.2,0.0500,-69.82,11.49
139,489.8,0.0500,-70.71,12.32
140,495.5,0.0500,-71.07,19.50
141,501.2,0.0500,-68.19,-0.09
142,507.0,0.0500,-69.56,-0.39
143,512.9,0.0500,-68.39,-9.30
144,518.8,0.0500,-69.64,10.94
145,524.8,0.0500,-69.20,0.27
146,530.9,0.0500,-69.31,6.86
147,537.0,0.0500,-70.39,21.48
148,543.3,0.0500,-70.96,4.35
149,549.5,0.0500,-69.55,-3.01
150,555.9,0.0500,-72.98,1.19
151,562.3,0.0500,-71.42,9.23
152,568.9,0.0500,-71.29,2.31
153,575.4,0.0500,-70.77,6.40
154,582.1,0.0500,-70.10,17.67
155,588.8,0.0500,-69.95,3.23
156,595.7,0.0500,-69.11,3.30
157,602.6,0.0500,-69.72,6.95
158,609.5,0.0500,-71.35,11.29
159,616.6,0.0500,-71.59,16.52
160,623.7,0.0500,-68.02,4.60
161,631.0,0.0500,-69.96,16.24
162,638.3,0.0500,-68.52,2.58
163,645.7,0.0500,-70.76,5.43
164,653.1,0.0500,-68.84,6.53
165,660.7,0.0500,-69.53,5.47
166,668.3,0.0500,-69.95,1.98
167,676.1,0.0500,-69.49,10.06
168,683.9,0.0500,-68.90,10.00
169,691.8,0.0500,-71.30,18.32
170,699.8,0.0500,-70.39,15.65
171,707.9,0.0500,-70.01,23.28
172,716.1,0.0500,-68.93,8.00
173,724.4,0.0500,-70.02,17.64
174,732.8,0.0500,-70.10,20.64
175,741.3,0.0500,-72.47,16.19
176,749.9,0.0500,-71.37,8.98
177,758.6,0.0500,-70.21,23.23
178,767.4,0.0500,-69.41,17.40
179,776.2,0.0500,-70.86,7.57
180,785.2,0.0500,-71.03,13.39
181,794.3,0.0500,-69.52,11.67
182,803.5,0.0500,-70.51,16.14
183,812.8,0.0500,-69.32,3.11
184,822.2,0.0500,-71.29,14.08
185,831.8,0.0500,-70.38,10.25
186,841.4,0.0500,-70.04,11.16
187,851.1,0.0500,-70.30,6.68
188,861.0,0.0500,-68.76,23.45
189,871.0,0.0500,-69.03,19.40
190,881.0,0.0500,-69.26,2.69
191,891.3,0.0500,-69.75,12.07
192,901.6,0.0500,-68.70,15.91
193,912.0,0.0500,-68.81,14.85
194,922.6,0.0500,-69.99,9.28
195,933.3,0.0500,-70.13,23.09
196,944.1,0.0500,-70.39,13.40
197,955.0,0.0500,-68.95,8.11
198,966.1,0.0500,-68.65,14.75
199,977.2,0.0500,-67.35,25.12
200,988.6,0.0500,-69.21,17.12
201,1000.0,0.0500,-70.99,-7.48
202,1011.6,0.0500,-68.70,2.33
203,1023.3,0.0500,-69.65,3.37
204,1035.1,0.0500,-69.46,12.87
205,1047.1,0.0500,-69.84,15.28
206,1059.3,0.0500,-67.42,12.57
207,1071.5,0.0500,-72.52,35.15
208,1083.9,0.0500,-68.46,19.42
209,1096.5,0.0500,-70.29,5.19
210,1109.2,0.0500,-70.39,12.02
211,1122.0,0.0500,-68.63,3.67
212,1135.0,0.0500,-70.36,4.05
213,1148.2,0.0500,-71.91,9.60
214,1161.4,0.0500,-71.09,16.52
215,1174.9,0.0500,-70.65,39.77
216,1188.5,0.0500,-69.02,8.07
217,1202.3,0.0500,-69.36,18.06
218,1216.2,0.0500,-69.35,11.09
219,1230.3,0.0500,-69.05,18.57
220,1244.5,0.0500,-68.02,22.59
221,1258.9,0.0500,-67.97,10.61
222,1273.5,0.0500,-70.64,23.42
223,1288.2,0.0500,-70.28,12.98
224,1303.2,0.0500,-69.03,17.99
225,1318.3,0.0500,-70.05,20.11
226,1333.5,0.0500,-70.17,15.14
227,1349.0,0.0500,-69.49,14.86
228,1364.6,0.0500,-68.71,20.19
229,1380.4,0.0500,-69.21,12.21
230,1396.4,0.0500,-67.86,27.42
231,1412.5,0.0500,-72.58,0.90
232,1428.9,0.0500,-68.43,17.50
233,1445.4,0.0500,-70.92,7.47
234,1462.2,0.0500,-69.87,20.37
235,1479.1,0.0500,-71.24,38.41
236,1496.2,0.0500,-68.41,1.27
237,1513.6,0.0500,-68.10,7.29
238,1531.1,0.0500,-71.83,45.87
239,1548.8,0.0500,-67.77,25.63
240,1566.8,0.0500,-66.57,8.03
241,1584.9,0.0500,-68.77,14.98
242,1603.2,0.0500,-69.53,14.09
243,1621.8,0.0500,-70.11,40.66
244,1640.6,0.0500,-81.65,77.91
245,1659.6,0.0500,-80.07,-64.41
246,1678.8,0.0500,-70.79,74.30
247,1698.2,0.0500,-68.97,-2.33
248,1717.9,0.0500,-68.81,5.78
249,1737.8,0.0500,-70.16,26.30
250,1757.9,0.0500,-70.35,29.47
251,1778.3,0.0500,-72.95,3.65
252,1798.9,0.0500,-69.32,39.65
253,1819.7,0.0500,-71.04,27.22
254,1840.8,0.0500,-73.03,66.71
255,1862.1,0.0500,-70.22,52.80
256,1883.6,0.0500,-67.00,31.05
257,1905.5,0.0500,-70.87,49.43
258,1927.5,0.0500,-69.79,0.18
259,1949.8,0.0500,-73.22,21.00
260,1972.4,0.0500,-71.95,31.95
261,1995.3,0.0500,-69.46,29.21
262,2018.4,0.0500,-69.65,34.94
263,2041.7,0.0500,-68.88,23.67
264,2065.4,0.0500,-68.89,21.61
265,2089.3,0.0500,-67.71,29.40
266,2113.5,0.0500,-69.02,25.51
267,2138.0,0.0500,-69.95,35.61
268,2162.7,0.0500,-68.41,17.41
269,2187.8,0.0500,-67.81,24.52
270,2213.1,0.0500,-68.88,16.47
271,2238.7,0.0500,-68.99,19.86
272,2264.6,0.0500,-69.23,24.48
273,2290.9,0.0500,-68.46,8.85
274,2317.4,0.0500,-67.08,23.14
275,2344.2,0.0500,-70.10,38.63
276,2371.4,0.0500,-73.25,60.35
277,2398.8,0.0500,-72.61,23.04
278,2426.6,0.0500,-68.46,12.03
279,2454.7,0.0500,-71.61,41.83
280,2483.1,0.0500,-67.99,20.30
281,2511.9,0.0500,-68.71,32.26
282,2541.0,0.0500,-69.01,43.28
283,2570.4,0.0500,-66.25,33.86
284,2600.2,0.0500,-67.93,22.57
285,2630.3,0.0500,-68.06,20.84
286,2660.7,0.0500,-68.00,18.62
287,2691.5,0.0500,-68.39,32.65
288,2722.7,0.0500,-65.49,20.04
289,2754.2,0.0500,-66.21,46.01
290,2786.1,0.0500,-68.04,24.69
291,2818.4,0.0500,-68.66,29.85
292,2851.0,0.0500,-70.62,21.29
293,2884.0,0.0500,-71.13,26.36
294,2917.4,0.0500,-67.96,31.25
295,2951.2,0.0500,-66.25,30.85
296,2985.4,0.0500,-68.11,30.12
297,3020.0,0.0500,-68.19,33.90
298,3054.9,0.0500,-68.95,32.49
299,3090.3,0.0500,-69.23,42.87
300,3126.1,0.0500,-67.32,24.45
301,3162.3,0.0500,-70.03,33.32
302,3198.9,0.0500,-68.75,39.32
303,3235.9,0.0500,-67.77,33.35
304,3273.4,0.0500,-69.35,34.53
305,3311.3,0.0500,-68.85,23.65
306,3349.7,0.0500,-67.13,38.55
307,3388.4,0.0500,-67.95,45.26
308,3427.7,0.0500,-68.11,23.99
309,3467.4,0.0500,-68.47,26.48
310,3507.5,0.0500,-67.05,25.13
311,3548.1,0.0500,-73.47,24.76
312,3589.2,0.0500,-67.35,4.67
313,3630.8,0.0500,-65.92,49.24
314,3672.8,0.0500,-67.89,65.23
315,3715.4,0.0500,-70.66,-7.54
316,3758.4,0.0500,-67.65,52.53
317,3801.9,0.0500,-65.64,78.10
318,3845.9,0.0500,-68.57,38.79
319,3890.5,0.0500,-67.89,33.98
320,3935.5,0.0500,-69.05,21.30
321,3981.1,0.0500,-66.03,24.75
322,4027.2,0.0500,-65.55,34.49
323,4073.8,0.0500,-67.09,38.72
324,4121.0,0.0500,-67.54,43.49
325,4168.7,0.0500,-68.96,25.94
326,4217.0,0.0500,-68.42,35.03
327,4265.8,0.0500,-67.91,43.01
328,4315.2,0.0500,-67.17,45.72
329,4365.2,0.0500,-67.81,37.01
330,4415.7,0.0500,-68.32,46.33
331,4466.8,0.0500,-66.39,42.11
332,4518.6,0.0500,-68.86,43.27
333,4570.9,0.0500,-66.78,36.99
334,4623.8,0.0500,-67.40,34.09
335,4677.4,0.0500,-67.38,27.45
336,4731.5,0.0500,-67.40,42.60
337,4786.3,0.0500,-65.83,27.47
338,4841.7,0.0500,-66.22,24.83
339,4897.8,0.0500,-66.49,47.78
340,4954.5,0.0500,-65.64,35.42
341,5011.9,0.0500,-66.09,24.95
342,5069.9,0.0500,-69.95,48.14
343,5128.6,0.0500,-66.31,46.62
344,5188.0,0.0500,-68.62,37.19
345,5248.1,0.0500,-66.93,51.23
346,5308.8,0.0500,-66.84,39.01
347,5370.3,0.0500,-65.86,36.92
348,5432.5,0.0500,-66.28,68.27
349,5495.4,0.0500,-66.12,53.50
350,5559.0,0.0500,-66.79,25.95
351,5623.4,0.0500,-65.55,46.94
352,5688.5,0.0500,-65.03,43.59
353,5754.4,0.0500,-65.71,31.16
354,5821.0,0.0500,-65.40,48.34
355,5888.4,0.0500,-66.82,52.24
356,5956.6,0.0500,-63.81,43.80
357,6025.6,0.0500,-64.33,55.32
358,6095.4,0.0500,-64.86,43.87
359,6166.0,0.0500,-64.25,50.19
360,6237.3,0.0500,-65.13,52.93
361,6309.6,0.0500,-64.82,51.36
362,6382.6,0.0500,-65.32,53.37
363,6456.5,0.0500,-64.81,57.27
364,6531.3,0.0500,-66.54,48.21
365,6606.9,0.0500,-64.91,53.20
366,6683.4,0.0500,-66.99,40.76
367,6760.8,0.0500,-64.03,61.99
368,6839.1,0.0500,-64.23,58.65
369,6918.3,0.0500,-66.32,45.91
370,6998.4,0.0500,-68.37,65.86
371,7079.5,0.0500,-65.07,36.83
372,7161.4,0.0500,-64.95,38.91
373,7244.4,0.0500,-63.79,49.68
374,7328.2,0.0500,-68.37,40.08
375,7413.1,0.0500,-66.50,74.67
376,7498.9,0.0500,-68.29,72.53
377,7585.8,0.0500,-64.51,51.99
378,7673.6,0.0500,-64.73,50.29
379,7762.5,0.0500,-64.49,50.18
380,7852.4,0.0500,-65.16,60.48
381,7943.3,0.0500,-63.62,58.37
382,8035.3,0.0500,-64.28,57.92
383,8128.3,0.0500,-63.73,59.24
384,8222.4,0.0500,-63.93,56.52
385,8317.6,0.0500,-62.78,51.81
386,8414.0,0.0500,-63.73,58.69
387,8511.4,0.0500,-63.35,50.79
388,8609.9,0.0500,-64.58,57.68
389,8709.6,0.0500,-64.74,58.44
390,8810.5,0.0500,-64.64,56.66
391,8912.5,0.0500,-64.21,59.64
392,9015.7,0.0500,-62.55,62.61
393,9120.1,0.0500,-63.47,63.13
394,9225.7,0.0500,-62.30,62.26
395,9332.5,0.0500,-62.98,74.32
396,9440.6,0.0500,-62.22,61.90
397,9549.9,0.0500,-61.99,54.69
398,9660.5,0.0500,-64.02,66.17
399,9772.4,0.0500,-63.59,61.01
400,9885.5,0.0500,-63.31,60.43
401,10000.0,0.0500,-63.02,60.59
402,10115.8,0.0500,-62.92,63.01
403,10232.9,0.0500,-62.64,66.19
404,10351.4,0.0500,-62.14,63.52
405,10471.3,0.0500,-62.54,62.38
406,10592.5,0.0500,-62.66,62.38
407,10715.2,0.0500,-62.38,63.19
408,10839.3,0.0500,-62.39,58.71
409,10964.8,0.0500,-62.08,64.87
410,11091.7,0.0500,-62.29,67.37
411,11220.2,0.0500,-62.20,64.27
412,11350.1,0.0500,-61.40,62.17
413,11481.5,0.0500,-61.76,62.77
414,11614.5,0.0500,-62.27,59.98
415,11749.0,0.0500,-61.46,68.86
416,11885.0,0.0500,-62.20,61.64
417,12022.6,0.0500,-61.94,59.19
418,12161.9,0.0500,-61.90,60.92
419,12302.7,0.0500,-61.43,67.60
420,12445.1,0.0500,-61.30,61.74
421,12589.3,0.0500,-61.44,60.85
422,12735.0,0.0500,-60.99,69.93
423,12882.5,0.0500,-61.24,67.31
424,13031.7,0.0500,-61.30,61.84
425,13182.6,0.0500,-61.08,63.81
426,13335.2,0.0500,-60.63,64.17
427,13489.6,0.0500,-61.68,72.58
428,13645.8,0.0500,-60.92,65.04
429,13803.8,0.0500,-60.49,66.21
430,13963.7,0.0500,-60.06,68.42
431,14125.4,0.0500,-60.86,66.41
432,14288.9,0.0500,-60.82,73.58
433,14454.4,0.0500,-61.34,69.42
434,14621.8,0.0500,-60.28,67.08
435,14791.1,0.0500,-59.91,68.15
436,14962.4,0.0500,-60.73,67.67
437,15135.6,0.0500,-59.68,63.04
438,15310.9,0.0500,-60.09,65.03
439,15488.2,0.0500,-60.48,64.47
440,15667.5,0.0500,-60.19,69.53
441,15848.9,0.0500,-59.73,70.11
442,16032.5,0.0500,-59.13,69.60
443,16218.1,0.0500,-59.25,72.22
444,16405.9,0.0500,-59.36,66.75
445,16595.9,0.0500,-59.45,71.72
446,16788.0,0.0500,-59.43,70.52
447,16982.4,0.0500,-59.76,71.90
448,17179.1,0.0500,-58.50,67.80
449,17378.0,0.0500,-58.83,68.11
450,17579.2,0.0500,-59.16,68.35
451,17782.8,0.0500,-58.80,67.15
452,17988.7,0.0500,-59.04,73.97
453,18197.0,0.0500,-59.00,68.73
454,18407.7,0.0500,-58.44,70.11
455,18620.9,0.0500,-58.53,72.89
456,18836.5,0.0500,-58.26,68.21
457,19054.6,0.0500,-58.32,68.79
458,19275.2,0.0500,-58.75,73.23
459,19498.4,0.0500,-58.28,74.16
460,19724.2,0.0500,-58.37,69.62
461,19952.6,0.0500,-58.22,71.08
462,20183.7,0.0500,-57.48,73.15
463,20417.4,0.0500,-58.01,74.79
464,20653.8,0.0500,-57.62,73.45
465,20893.0,0.0500,-57.47,72.76
466,21134.9,0.0500,-58.04,70.09
467,21379.6,0.0500,-57.59,72.55
468,21627.2,0.0500,-57.62,71.69
469,21877.6,0.0500,-57.54,73.68
470,22130.9,0.0500,-57.18,70.35
471,22387.2,0.0500,-57.16,71.23
472,22646.4,0.0500,-57.19,75.79
473,22908.7,0.0500,-56.82,74.62
474,23173.9,0.0500,-56.67,74.94
475,23442.3,0.0500,-56.77,75.20
476,23713.7,0.0500,-56.71,76.79
477,23988.3,0.0500,-56.66,73.75
478,24266.1,0.0500,-56.46,74.10
479,24547.1,0.0500,-56.24,73.29
480,24831.3,0.0500,-56.84,74.81
481,25118.9,0.0500,-56.33,77.71
482,25409.7,0.0500,-55.72,72.17
483,25704.0,0.0500,-56.22,77.72
484,26001.6,0.0500,-55.80,75.60
485,26302.7,0.0500,-55.66,76.21
486,26607.3,0.0500,-56.06,76.06
487,26915.3,0.0500,-55.61,75.74
488,27227.0,0.0500,-55.48,77.34
489,27542.3,0.0500,-55.51,75.41
490,27861.2,0.0500,-55.23,76.55
491,28183.8,0.0500,-55.41,75.77
492,28510.2,0.0500,-55.10,76.46
493,28840.3,0.0500,-54.99,77.50
494,29174.3,0.0500,-54.84,77.40
495,29512.1,0.0500,-54.50,78.26
496,29853.8,0.0500,-54.56,77.01
497,30199.5,0.0500,-54.47,76.40
498,30549.2,0.0500,-54.48,77.95
499,30903.0,0.0500,-54.64,78.47
500,31260.8,0.0500,-54.41,76.62
501,31622.8,0.0500,-54.31,74.45
502,31989.0,0.0500,-54.13,78.41
503,32359.4,0.0500,-54.62,77.87
504,32734.1,0.0500,-53.90,77.40
505,33113.1,0.0500,-54.09,77.45
506,33496.5,0.0500,-54.29,75.57
507,33884.4,0.0500,-53.63,79.45
508,34276.8,0.0500,-53.78,80.48
509,34673.7,0.0500,-53.37,78.81
510,35075.2,0.0500,-53.23,78.65
511,35481.3,0.0500,-53.05,78.49
512,35892.2,0.0500,-53.21,79.42
513,36307.8,0.0500,-53.41,77.72
514,36728.2,0.0500,-53.16,77.47
515,37153.5,0.0500,-53.06,78.19
516,37583.7,0.0500,-52.84,78.82
517,38018.9,0.0500,-53.06,79.26
518,38459.2,0.0500,-52.63,78.64
519,38904.5,0.0500,-52.64,78.27
520,39355.0,0.0500,-52.52,80.55
521,39810.7,0.0500,-52.40,80.41
522,40271.7,0.0500,-51.86,79.00
523,40738.0,0.0500,-52.32,80.63
524,41209.8,0.0500,-51.96,81.35
525,41686.9,0.0500,-51.93,79.51
526,42169.7,0.0500,-51.91,78.67
527,42658.0,0.0500,-51.71,78.01
528,43151.9,0.0500,-51.94,79.79
529,43651.6,0.0500,-51.22,80.55
530,44157.0,0.0500,-51.40,81.49
531,44668.4,0.0500,-51.52,80.43
532,45185.6,0.0500,-51.69,81.18
533,45708.8,0.0500,-51.51,80.14
534,46238.1,0.0500,-51.07,79.01
535,46773.5,0.0500,-50.96,80.84
536,47315.1,0.0500,-51.24,80.06
537,47863.0,0.0500,-51.07,80.83
538,48417.2,0.0500,-51.06,81.26
539,48977.9,0.0500,-50.71,82.42
540,49545.0,0.0500,-50.30,80.63
541,50118.7,0.0500,-50.14,80.25
542,50699.1,0.0500,-50.31,81.03
543,51286.1,0.0500,-49.86,80.71
544,51880.0,0.0500,-49.78,80.63
545,52480.7,0.0500,-49.38,77.52
546,53088.4,0.0500,-49.77,81.76
547,53703.2,0.0500,-49.60,80.01
548,54325.0,0.0500,-49.36,77.34
549,54954.1,0.0500,-49.51,77.23
550,55590.4,0.0500,-49.39,78.69
551,56234.1,0.0500,-49.33,78.82
552,56885.3,0.0500,-49.35,80.49
553,57544.0,0.0500,-49.25,77.57
554,58210.3,0.0500,-49.42,81.62
555,58884.4,0.0500,-49.41,80.52
556,59566.2,0.0500,-49.04,83.66
557,60256.0,0.0500,-48.93,81.12
558,60953.7,0.0500,-48.80,79.85
559,61659.5,0.0500,-48.94,79.05
560,62373.5,0.0500,-48.47,78.47
561,63095.7,0.0500,-48.28,79.80
562,63826.3,0.0500,-48.43,79.88
563,64565.4,0.0500,-48.32,77.91
564,65313.1,0.0500,-48.33,80.00
565,66069.3,0.0500,-47.51,78.89
566,66834.4,0.0500,-48.13,79.37
567,67608.3,0.0500,-47.95,82.23
568,68391.2,0.0500,-47.94,80.68
569,69183.1,0.0500,-47.18,77.90
570,69984.2,0.0500,-47.63,83.79
571,70794.6,0.0500,-47.68,81.31
572,71614.3,0.0500,-47.31,81.52
573,72443.6,0.0500,-47.50,80.41
574,73282.5,0.0500,-47.33,78.92
575,74131.0,0.0500,-47.26,79.78
576,74989.4,0.0500,-47.30,79.43
577,75857.8,0.0500,-46.97,79.44
578,76736.1,0.0500,-46.86,80.50
579,77624.7,0.0500,-47.06,79.66
580,78523.6,0.0500,-46.63,79.07
581,79432.8,0.0500,-46.52,79.69
582,80352.6,0.0500,-46.44,78.92
583,81283.1,0.0500,-46.39,82.00
584,82224.3,0.0500,-46.22,79.47
585,83176.4,0.0500,-46.06,81.46
586,84139.5,0.0500,-46.25,80.53
587,85113.8,0.0500,-46.04,81.87
588,86099.4,0.0500,-45.93,80.89
589,87096.4,0.0500,-45.96,80.82
590,88104.9,0.0500,-45.81,79.70
591,89125.1,0.0500,-45.56,80.81
592,90157.1,0.0500,-45.43,81.04
593,91201.1,0.0500,-45.52,80.67
594,92257.1,0.0500,-45.38,82.39
595,93325.4,0.0500,-45.48,81.34
596,94406.1,0.0500,-45.45,79.35
597,95499.3,0.0500,-45.08,81.42
598,96605.1,0.0500,-44.77,81.05
599,97723.7,0.0500,-44.96,80.95
600,98855.3,0.0500,-44.88,80.99
601,100000.0,0.0500,-44.75,80.49
602,101157.9,0.0500,-44.45,79.52
603,102329.3,0.0500,-44.13,81.16
604,103514.2,0.0500,-44.31,79.63
605,104712.9,0.0500,-44.47,80.29
606,105925.4,0.0500,-44.56,80.59
607,107151.9,0.0500,-44.01,80.62
608,108392.7,0.0500,-44.13,81.77
609,109647.8,0.0500,-43.79,81.59
610,110917.5,0.0500,-43.84,81.81
611,112201.8,0.0500,-43.79,82.77
612,113501.1,0.0500,-43.59,80.01
613,114815.4,0.0500,-43.78,80.66
614,116144.9,0.0500,-43.40,80.52
615,117489.8,0.0500,-43.19,81.01
616,118850.2,0.0500,-43.15,80.86
617,120226.4,0.0500,-43.32,82.29
618,121618.6,0.0500,-42.97,79.90
619,123026.9,0.0500,-43.08,82.38
620,124451.5,0.0500,-42.99,80.47
621,125892.5,0.0500,-42.66,81.96
622,127350.3,0.0500,-42.87,80.87
623,128825.0,0.0500,-42.44,80.47
624,130316.7,0.0500,-42.39,81.76
625,131825.7,0.0500,-42.36,79.63
626,133352.1,0.0500,-41.88,81.35
627,134896.3,0.0500,-42.15,81.13
628,136458.3,0.0500,-42.16,79.87
629,138038.4,0.0500,-42.02,82.02
630,139636.8,0.0500,-41.86,80.46
631,141253.8,0.0500,-41.94,79.98
632,142889.4,0.0500,-41.87,81.08
633,144544.0,0.0500,-41.53,82.25
634,146217.7,0.0500,-41.36,80.61
635,147910.8,0.0500,-41.01,81.73
636,149623.6,0.0500,-41.40,80.61
637,151356.1,0.0500,-41.24,81.68
638,153108.7,0.0500,-41.39,81.09
639,154881.7,0.0500,-40.90,81.68
640,156675.1,0.0500,-40.92,80.24
641,158489.3,0.0500,-40.67,77.67
642,160324.5,0.0500,-40.86,77.16
643,162181.0,0.0500,-40.63,79.54
644,164059.0,0.0500,-40.64,82.52
645,165958.7,0.0500,-40.51,82.73
646,167880.4,0.0500,-39.89,79.34
647,169824.4,0.0500,-39.74,84.09
648,171790.8,0.0500,-39.53,79.16
649,173780.1,0.0500,-39.86,81.45
650,175792.4,0.0500,-39.63,81.90
651,177827.9,0.0500,-39.67,81.84
652,179887.1,0.0500,-39.45,82.68
653,181970.1,0.0500,-39.51,80.35
654,184077.2,0.0500,-39.61,79.34
655,186208.7,0.0500,-39.27,81.05
656,188364.9,0.0500,-38.89,81.58
657,190546.1,0.0500,-38.96,80.73
658,192752.5,0.0500,-38.77,80.58
659,194984.5,0.0500,-39.72,81.19
660,197242.3,0.0500,-38.70,82.39
661,199526.2,0.0500,-38.59,82.43
662,201836.6,0.0500,-38.51,80.45
663,204173.8,0.0500,-38.35,81.47
664,206538.0,0.0500,-37.97,81.74
665,208929.6,0.0500,-38.27,87.76
666,211348.9,0.0500,-38.28,82.26
667,213796.2,0.0500,-38.01,80.03
668,216271.9,0.0500,-37.82,80.45
669,218776.2,0.0500,-37.63,80.83
670,221309.5,0.0500,-37.54,80.35
671,223872.1,0.0500,-37.47,78.85
672,226464.4,0.0500,-38.16,83.51
673,229086.8,0.0500,-37.36,79.75
674,231739.5,0.0500,-37.33,80.08
675,234422.9,0.0500,-37.54,77.67
676,237137.4,0.0500,-36.85,80.63
677,239883.3,0.0500,-36.87,79.80
678,242661.0,0.0500,-36.78,80.54
679,245470.9,0.0500,-37.19,80.80
680,248313.3,0.0500,-36.67,79.61
681,251188.6,0.0500,-36.54,79.46
682,254097.3,0.0500,-36.18,79.83
683,257039.6,0.0500,-36.18,77.41
684,260016.0,0.0500,-35.94,79.17
685,263026.8,0.0500,-35.88,79.29
686,266072.5,0.0500,-35.59,80.87
687,269153.5,0.0500,-35.53,79.86
688,272270.1,0.0500,-35.75,79.52
689,275422.9,0.0500,-35.61,78.63
690,278612.1,0.0500,-35.48,79.80
691,281838.3,0.0500,-35.27,78.73
692,285101.8,0.0500,-34.85,79.30
693,288403.2,0.0500,-35.05,76.79
694,291742.7,0.0500,-34.98,78.54
695,295120.9,0.0500,-34.65,79.88
696,298538.3,0.0500,-34.64,78.92
697,301995.2,0.0500,-34.08,79.57
698,305492.1,0.0500,-34.11,80.30
699,309029.5,0.0500,-34.36,79.24
700,312607.9,0.0500,-34.42,80.79
701,316227.8,0.0500,-33.79,76.83
702,319889.5,0.0500,-34.08,80.52
703,323593.7,0.0500,-33.73,77.77
704,327340.7,0.0500,-33.56,80.19
705,331131.1,0.0500,-33.40,75.85
706,334965.4,0.0500,-33.24,78.69
707,338844.2,0.0500,-33.14,77.28
708,342767.8,0.0500,-33.02,77.19
709,346736.9,0.0500,-32.83,76.58
710,350751.9,0.0500,-32.63,76.59
711,354813.4,0.0500,-32.59,77.07
712,358921.9,0.0500,-32.47,76.52
713,363078.1,0.0500,-32.37,77.15
714,367282.3,0.0500,-32.15,76.33
715,371535.2,0.0500,-31.93,76.14
716,375837.4,0.0500,-32.17,78.46
717,380189.4,0.0500,-31.63,75.93
718,384591.8,0.0500,-30.96,73.15
719,389045.1,0.0500,-31.25,75.27
720,393550.1,0.0500,-31.45,72.18
721,398107.2,0.0500,-31.01,74.71
722,402717.0,0.0500,-31.02,73.59
723,407380.3,0.0500,-30.67,73.19
724,412097.5,0.0500,-30.66,72.18
725,416869.4,0.0500,-30.42,72.83
726,421696.5,0.0500,-30.05,74.24
727,426579.5,0.0500,-30.06,72.09
728,431519.1,0.0500,-29.75,71.49
729,436515.8,0.0500,-29.50,70.92
730,441570.4,0.0500,-29.54,69.55
731,446683.6,0.0500,-29.26,72.66
732,451855.9,0.0500,-29.10,69.63
733,457088.2,0.0500,-28.75,69.72
734,462381.0,0.0500,-28.45,69.37
735,467735.1,0.0500,-27.09,72.57
736,473151.3,0.0500,-27.95,65.67
737,478630.1,0.0500,-27.76,65.21
738,484172.4,0.0500,-27.49,62.68
739,489778.8,0.0500,-27.39,61.22
740,495450.2,0.0500,-27.04,60.47
741,501187.2,0.0500,-26.96,59.80
742,506990.7,0.0500,-26.56,54.27
743,512861.4,0.0500,-26.39,42.66
744,518800.0,0.0500,-26.29,48.07
745,524807.5,0.0500,-26.82,48.39
746,530884.4,0.0500,-26.78,39.35
747,537031.8,0.0500,-27.01,37.17
748,543250.3,0.0500,-27.25,35.15
749,549540.9,0.0500,-27.90,30.63
750,555904.3,0.0500,-28.60,30.42
751,562341.3,0.0500,-29.15,30.80
752,568852.9,0.0500,-29.72,33.15
753,575439.9,0.0500,-30.14,34.25
754,582103.2,0.0500,-30.94,38.15
755,588843.7,0.0500,-31.30,48.01
756,595662.1,0.0500,-30.56,45.49
757,602559.6,0.0500,-30.94,47.21
758,609536.9,0.0500,-30.89,50.13
759,616595.0,0.0500,-30.29,56.20
760,623734.8,0.0500,-29.91,53.73
761,630957.3,0.0500,-29.80,54.84
762,638263.5,0.0500,-29.57,58.84
763,645654.2,0.0500,-29.34,56.49
764,653130.6,0.0500,-29.34,60.87
765,660693.4,0.0500,-28.39,63.74
766,668343.9,0.0500,-29.06,68.74
767,676083.0,0.0500,-28.23,67.95
768,683911.6,0.0500,-27.82,61.16
769,691831.0,0.0500,-29.44,62.46
770,699842.0,0.0500,-27.55,60.60
771,707945.8,0.0500,-26.73,61.97
772,716143.4,0.0500,-26.35,62.42
773,724436.0,0.0500,-26.39,61.67
774,732824.5,0.0500,-26.07,59.48
775,741310.2,0.0500,-25.43,62.49
776,749894.2,0.0500,-25.66,61.44
777,758577.6,0.0500,-25.53,64.51
778,767361.5,0.0500,-25.40,60.66
779,776247.1,0.0500,-25.84,64.43
780,785235.6,0.0500,-24.01,61.44
781,794328.2,0.0500,-24.18,56.45
782,803526.1,0.0500,-23.19,63.59
783,812830.5,0.0500,-23.13,60.23
784,822242.6,0.0500,-23.35,55.13
785,831763.8,0.0500,-22.96,55.96
786,841395.1,0.0500,-22.17,53.97
787,851138.0,0.0500,-22.71,49.14
788,860993.8,0.0500,-21.89,55.84
789,870963.6,0.0500,-21.24,53.15
790,881048.9,0.0500,-21.12,51.70
791,891250.9,0.0500,-20.83,46.13
792,901571.1,0.0500,-20.30,49.73
793,912010.8,0.0500,-19.78,52.03
794,922571.4,0.0500,-20.02,47.43
795,933254.3,0.0500,-19.04,44.00
796,944060.9,0.0500,-19.86,42.97
797,954992.6,0.0500,-18.45,41.59
798,966050.9,0.0500,-18.24,34.10
799,977237.2,0.0500,-17.95,36.46
800,988553.1,0.0500,-17.23,34.00
801,1000000.0,0.0500,-17.48,26.50
802,1011579.5,0.0500,-16.80,30.23
803,1023293.0,0.0500,-15.59,25.62
804,1035142.2,0.0500,-16.45,16.88
805,1047128.5,0.0500,-15.87,21.69
806,1059253.7,0.0500,-15.75,11.67
807,1071519.3,0.0500,-15.44,11.50
808,1083926.9,0.0500,-14.82,5.20
809,1096478.2,0.0500,-14.74,1.48
810,1109174.8,0.0500,-14.45,-6.24
811,1122018.5,0.0500,-13.83,-8.48
812,1135010.8,0.0500,-14.45,-14.75
813,1148153.6,0.0500,-13.70,-18.62
814,1161448.6,0.0500,-14.37,-25.09
815,1174897.6,0.0500,-14.65,-26.75
816,1188502.2,0.0500,-15.27,-39.45
817,1202264.4,0.0500,-14.66,-41.71
818,1216186.0,0.0500,-15.12,-46.65
819,1230268.8,0.0500,-16.30,-51.63
820,1244514.6,0.0500,-15.18,-48.10
821,1258925.4,0.0500,-16.28,-55.70
822,1273503.1,0.0500,-16.54,-59.96
823,1288249.6,0.0500,-17.17,-59.10
824,1303166.8,0.0500,-18.46,-68.30
825,1318256.7,0.0500,-18.01,-64.27
826,1333521.4,0.0500,-18.50,-65.15
827,1348962.9,0.0500,-19.30,-68.01
828,1364583.1,0.0500,-19.74,-64.02
829,1380384.3,0.0500,-19.75,-73.29
830,1396368.4,0.0500,-20.29,-84.17
831,1412537.5,0.0500,-20.03,-77.22
832,1428894.0,0.0500,-21.32,-82.46
833,1445439.8,0.0500,-21.21,-86.17
834,1462177.2,0.0500,-21.04,-77.95
835,1479108.4,0.0500,-21.52,-87.18
836,1496235.7,0.0500,-21.32,-85.66
837,1513561.2,0.0500,-22.96,-85.24
838,1531087.5,0.0500,-22.94,-89.32
839,1548816.6,0.0500,-22.99,-88.44
840,1566751.1,0.0500,-25.96,-77.71
841,1584893.2,0.0500,-23.10,-97.13
842,1603245.4,0.0500,-25.86,-95.47
843,1621810.1,0.0500,-24.08,-89.59
844,1640589.8,0.0500,-24.61,-85.30
845,1659586.9,0.0500,-26.16,-98.48
846,1678804.0,0.0500,-25.44,-98.18
847,1698243.7,0.0500,-25.11,-103.36
848,1717908.4,0.0500,-27.47,-116.33
849,1737800.8,0.0500,-25.98,-96.77
850,1757923.6,0.0500,-28.22,-113.98
851,1778279.4,0.0500,-27.84,-113.45
852,1798870.9,0.0500,-27.26,-98.07
853,1819700.9,0.0500,-30.48,-84.31
854,1840772.0,0.0500,-30.38,-119.11
855,1862087.1,0.0500,-30.23,-111.31
856,1883649.1,0.0500,-33.26,-96.98
857,1905460.7,0.0500,-23.64,-44.22
858,1927524.9,0.0500,-34.41,-93.50
859,1949844.6,0.0500,-36.48,-136.10
860,1972422.7,0.0500,-39.84,-75.08
861,1995262.3,0.0500,-36.84,-38.98
862,2018366.4,0.0500,-37.24,-5.18
863,2041737.9,0.0500,-37.13,-16.81
864,2065380.2,0.0500,-44.61,-28.68
865,2089296.1,0.0500,-29.59,-51.66
866,2113489.0,0.0500,-29.01,-59.68
867,2137962.1,0.0500,-28.49,-61.34
868,2162718.5,0.0500,-28.87,-67.76
869,2187761.6,0.0500,-30.64,-66.15
870,2213094.7,0.0500,-29.58,-80.58
871,2238721.1,0.0500,-29.38,-82.78
872,2264644.3,0.0500,-31.29,-99.46
873,2290867.7,0.0500,-29.96,-85.30
874,2317394.6,0.0500,-29.41,-76.81
875,2344228.8,0.0500,-29.97,-35.47
876,2371373.7,0.0500,-30.74,-107.21
877,2398832.9,0.0500,-30.55,-88.40
878,2426610.1,0.0500,-31.81,-92.95
879,2454708.9,0.0500,-29.96,-93.39
880,2483133.1,0.0500,-30.01,-101.62
881,2511886.4,0.0500,-30.37,-97.66
882,2540972.7,0.0500,-30.68,-104.06
883,2570395.8,0.0500,-38.41,-143.66
884,2600159.6,0.0500,-33.38,-102.52
885,2630268.0,0.0500,-30.59,-109.65
886,2660725.1,0.0500,-33.20,-99.50
887,2691534.8,0.0500,-32.90,-51.99
888,2722701.3,0.0500,-32.78,-103.72
889,2754228.7,0.0500,-32.88,-109.86
890,2786121.2,0.0500,-32.13,-157.16
891,2818382.9,0.0500,-34.52,-101.39
892,2851018.3,0.0500,-38.72,-20.17
893,2884031.5,0.0500,-35.65,-116.65
894,2917427.0,0.0500,-40.54,-142.65
895,2951209.2,0.0500,-37.77,-87.52
896,2985382.6,0.0500,-35.20,-133.34
897,3019951.7,0.0500,-35.35,-73.08
898,3054921.1,0.0500,-33.84,-70.85
899,3090295.4,0.0500,-30.16,-88.93
900,3126079.4,0.0500,-34.59,-100.47
901,3162277.7,0.0500,-33.20,-88.81
902,3198895.1,0.0500,-36.02,-95.10
903,3235936.6,0.0500,-32.87,-95.64
904,3273406.9,0.0500,-32.94,-89.92
905,3311311.2,0.0500,-37.38,-93.73
906,3349654.4,0.0500,-32.59,-79.83
907,3388441.6,0.0500,-34.10,-102.35
908,3427677.9,0.0500,-34.95,-84.02
909,3467368.5,0.0500,-35.38,-99.69
910,3507518.7,0.0500,-30.58,-86.16
911,3548133.9,0.0500,-30.90,-115.67
912,3589219.3,0.0500,-34.51,-92.47
913,3630780.5,0.0500,-33.60,-78.41
914,3672823.0,0.0500,-35.94,-103.28
915,3715352.3,0.0500,-33.63,-77.28
916,3758374.0,0.0500,-39.61,-32.09
917,3801894.0,0.0500,-37.07,-112.83
918,3845917.8,0.0500,-37.31,-113.01
919,3890451.4,0.0500,-39.13,-103.01
920,3935500.8,0.0500,-18.93,-133.85
921,3981071.7,0.0500,-35.90,-117.02
922,4027170.3,0.0500,-37.01,-89.67
923,4073802.8,0.0500,-34.33,-74.45
924,4120975.2,0.0500,-35.14,-94.44
925,4168693.8,0.0500,-36.02,-101.51
926,4216965.0,0.0500,-33.17,-95.50
927,4265795.2,0.0500,-38.12,-97.43
928,4315190.8,0.0500,-36.82,-119.78
929,4365158.3,0.0500,-34.61,-38.50
930,4415704.5,0.0500,-40.08,-128.93
931,4466835.9,0.0500,-37.04,-103.17
932,4518559.4,0.0500,-37.80,-113.88
933,4570881.9,0.0500,-37.81,-116.75
934,4623810.2,0.0500,-37.11,-101.05
935,4677351.4,0.0500,-45.17,-115.67
936,4731512.6,0.0500,-41.32,-108.03
937,4786300.9,0.0500,-34.79,-97.06
938,4841723.7,0.0500,-40.53,-122.97
939,4897788.2,0.0500,-41.87,-117.19
940,4954501.9,0.0500,-42.33,-91.22
941,5011872.3,0.0500,-41.08,-102.26
942,5069907.1,0.0500,-40.25,-105.50
943,5128613.8,0.0500,-37.40,-114.40
944,5188000.4,0.0500,-35.51,-126.07
945,5248074.6,0.0500,-38.75,-110.89
946,5308844.4,0.0500,-37.38,-104.69
947,5370318.0,0.0500,-43.26,-130.11
948,5432503.3,0.0500,-41.63,-105.22
949,5495408.7,0.0500,-40.51,-122.47
950,5559042.6,0.0500,-38.18,-123.00
951,5623413.3,0.0500,-42.33,-108.63
952,5688529.3,0.0500,-42.43,-101.92
953,5754399.4,0.0500,-37.94,-96.04
954,5821032.2,0.0500,-42.59,-114.30
955,5888436.6,0.0500,-39.48,-78.90
956,5956621.4,0.0500,-38.86,-112.98
957,6025595.9,0.0500,-40.47,-114.90
958,6095369.0,0.0500,-38.26,-109.03
959,6165950.0,0.0500,-40.00,-133.68
960,6237348.4,0.0500,-43.08,-88.53
961,6309573.4,0.0500,-42.61,-113.74
962,6382634.9,0.0500,-41.12,-127.30
963,6456542.3,0.0500,-39.17,-89.93
964,6531305.5,0.0500,-49.10,-119.93
965,6606934.5,0.0500,-39.35,-126.81
966,6683439.2,0.0500,-40.45,-116.86
967,6760829.8,0.0500,-38.42,-111.76
968,6839116.5,0.0500,-37.43,-98.21
969,6918309.7,0.0500,-48.29,-158.59
970,6998420.0,0.0500,-41.54,-113.03
971,7079457.8,0.0500,-42.25,-95.69
972,7161434.1,0.0500,-45.54,-91.59
973,7244359.6,0.0500,-44.07,-67.26
974,7328245.3,0.0500,-42.20,-98.45
975,7413102.4,0.0500,-44.35,-162.62
976,7498942.1,0.0500,-41.39,-132.55
977,7585775.8,0.0500,-40.15,-127.28
978,7673614.9,0.0500,-52.52,-125.98
979,7762471.2,0.0500,-48.16,-113.50
980,7852356.3,0.0500,-40.34,-93.00
981,7943282.3,0.0500,-44.30,-93.01
982,8035261.2,0.0500,-44.37,-86.71
983,8128305.2,0.0500,-46.41,-103.38
984,8222426.5,0.0500,-40.11,-98.80
985,8317637.7,0.0500,-44.83,-109.20
986,8413951.4,0.0500,-37.65,-100.23
987,8511380.4,0.0500,-42.07,-102.48
988,8609937.5,0.0500,-52.82,-163.44
989,8709635.9,0.0500,-42.56,-114.31
990,8810488.7,0.0500,-42.62,-142.43
991,8912509.4,0.0500,-41.60,-108.64
992,9015711.4,0.0500,-49.78,-137.79
993,9120108.4,0.0500,-46.17,-113.74
994,9225714.3,0.0500,-40.84,-102.21
995,9332543.0,0.0500,-41.81,-104.92
996,9440608.8,0.0500,-41.74,-91.98
997,9549925.9,0.0500,-48.83,-108.34
998,9660508.8,0.0500,-46.53,-70.94
999,9772372.2,0.0500,-43.01,-91.26
1000,9885530.9,0.0500,-47.16,-82.89
1001,10000000.0,0.0500,-42.88,-82.55
