#, Frequency (Hz), Amplitude (Vpp), Gain (dB), Phase (°)
1,100.0,0.0500,-60.71,-0.15
2,101.2,0.0500,-60.66,5.29
3,102.3,0.0500,-60.92,3.84
4,103.5,0.0500,-61.47,5.82
5,104.7,0.0500,-60.13,-4.17
6,105.9,0.0500,-60.56,2.81
7,107.2,0.0500,-60.84,7.92
8,108.4,0.0500,-60.48,1.70
9,109.6,0.0500,-60.90,5.09
10,110.9,0.0500,-60.98,1.55
11,112.2,0.0500,-60.58,-1.36
12,113.5,0.0500,-61.66,0.88
13,114.8,0.0500,-60.96,0.18
14,116.1,0.0500,-61.02,2.73
15,117.5,0.0500,-61.04,2.06
16,118.9,0.0500,-60.22,3.43
17,120.2,0.0500,-61.46,4.63
18,121.6,0.0500,-60.98,4.87
19,123.0,0.0500,-61.37,3.19
20,124.5,0.0500,-60.43,3.61
21,125.9,0.0500,-60.11,0.53
22,127.4,0.0500,-60.62,3.69
23,128.8,0.0500,-60.56,1.70
24,130.3,0.0500,-60.75,3.45
25,131.8,0.0500,-61.00,1.76
26,133.4,0.0500,-60.44,5.04
27,134.9,0.0500,-60.91,3.25
28,136.5,0.0500,-59.81,9.26
29,138.0,0.0500,-60.84,0.20
30,139.6,0.0500,-59.98,2.23
31,141.3,0.0500,-60.17,1.02
32,142.9,0.0500,-60.99,7.18
33,144.5,0.0500,-60.81,4.56
34,146.2,0.0500,-60.84,6.04
35,147.9,0.0500,-61.47,4.38
36,149.6,0.0500,-60.25,3.11
37,151.4,0.0500,-60.74,2.94
38,153.1,0.0500,-60.06,6.32
39,154.9,0.0500,-61.17,-1.19
40,156.7,0.0500,-60.60,6.91
41,158.5,0.0500,-59.97,1.61
42,160.3,0.0500,-60.87,0.82
43,162.2,0.0500,-60.72,6.98
44,164.1,0.0500,-60.57,5.58
45,166.0,0.0500,-59.69,6.67
46,167.9,0.0500,-60.47,7.63
47,169.8,0.0500,-60.54,4.70
48,171.8,0.0500,-60.96,5.51
49,173.8,0.0500,-59.99,6.92
50,175.8,0.0500,-61.21,6.97
51,177.8,0.0500,-60.32,6.23
52,179.9,0.0500,-60.67,2.98
53,182.0,0.0500,-59.94,1.57
54,184.1,0.0500,-60.49,5.94
55,186.2,0.0500,-60.80,10.23
56,188.4,0.0500,-59.87,5.68
57,190.5,0.0500,-60.54,6.27
58,192.8,0.0500,-61.18,11.10
59,195.0,0.0500,-60.36,11.09
60,197.2,0.0500,-60.96,11.08
61,199.5,0.0500,-60.90,5.72
62,201.8,0.0500,-61.13,9.96
63,204.2,0.0500,-60.34,9.50
64,206.5,0.0500,-60.31,2.07
65,208.9,0.0500,-60.02,5.72
66,211.3,0.0500,-60.56,5.41
67,213.8,0.0500,-60.72,4.80
68,216.3,0.0500,-60.72,3.72
69,218.8,0.0500,-60.73,7.22
70,221.3,0.0500,-60.17,4.76
71,223.9,0.0500,-60.11,7.66
72,226.5,0.0500,-60.58,4.66
73,229.1,0.0500,-59.93,5.54
74,231.7,0.0500,-60.97,4.14
75,234.4,0.0500,-60.47,3.29
76,237.1,0.0500,-60.04,7.91
77,239.9,0.0500,-60.31,3.19
78,242.7,0.0500,-59.96,7.06
79,245.5,0.0500,-60.33,11.23
80,248.3,0.0500,-60.66,3.26
81,251.2,0.0500,-59.85,10.46
82,254.1,0.0500,-60.56,5.08
83,257.0,0.0500,-60.55,8.46
84,260.0,0.0500,-60.84,4.72
85,263.0,0.0500,-60.49,4.70
86,266.1,0.0500,-60.15,2.54
87,269.2,0.0500,-60.05,4.25
88,272.3,0.0500,-60.34,6.62
89,275.4,0.0500,-60.30,5.39
90,278.6,0.0500,-60.06,9.96
91,281.8,0.0500,-60.20,7.80
92,285.1,0.0500,-60.67,8.73
93,288.4,0.0500,-60.45,9.99
94,291.7,0.0500,-60.15,6.79
95,295.1,0.0500,-60.13,8.93
96,298.5,0.0500,-60.48,12.51
97,302.0,0.0500,-60.28,6.75
98,305.5,0.0500,-60.14,9.41
99,309.0,0.0500,-60.55,6.96
100,312.6,0.0500,-60.83,12.41
101,316.2,0.0500,-59.50,8.94
102,319.9,0.0500,-59.93,6.92
103,323.6,0.0500,-60.10,10.63
104,327.3,0.0500,-60.32,8.33
105,331.1,0.0500,-59.95,5.35
106,335.0,0.0500,-59.91,12.76
107,338.8,0.0500,-59.66,8.19
108,342.8,0.0500,-60.33,6.12
109,346.7,0.0500,-59.84,10.89
110,350.8,0.0500,-59.97,12.34
111,354.8,0.0500,-59.88,10.52
112,358.9,0.0500,-59.94,8.03
113,363.1,0.0500,-60.00,13.60
114,367.3,0.0500,-60.28,8.50
115,371.5,0.0500,-59.66,9.54
116,375.8,0.0500,-60.12,9.18
117,380.2,0.0500,-60.45,8.61
118,384.6,0.0500,-59.35,10.75
119,389.0,0.0500,-59.40,10.07
120,393.6,0.0500,-60.07,10.16
121,398.1,0.0500,-60.00,6.87
122,402.7,0.0500,-60.03,12.21
123,407.4,0.0500,-59.94,8.92
124,412.1,0.0500,-60.15,8.55
125,416.9,0.0500,-60.02,12.19
126,421.7,0.0500,-60.00,9.48
127,426.6,0.0500,-59.92,12.83
128,431.5,0.0500,-59.61,11.86
129,436.5,0.0500,-59.49,10.64
130,441.6,0.0500,-59.75,14.84
131,446.7,0.0500,-59.63,10.00
132,451.9,0.0500,-59.94,11.23
133,457.1,0.0500,-59.54,12.67
134,462.4,0.0500,-60.00,11.83
135,467.7,0.0500,-60.43,11.84
136,473.2,0.0500,-60.33,14.04
137,478.6,0.0500,-59.99,13.83
138,484.2,0.0500,-59.78,8.73
139,489.8,0.0500,-59.92,10.07
140,495.5,0.0500,-59.84,13.88
141,501.2,0.0500,-60.15,10.29
142,507.0,0.0500,-60.41,18.41
143,512.9,0.0500,-59.42,17.38
144,518.8,0.0500,-60.15,17.65
145,524.8,0.0500,-59.49,15.35
146,530.9,0.0500,-60.85,20.69
147,537.0,0.0500,-60.21,8.99
148,543.3,0.0500,-59.81,16.82
149,549.5,0.0500,-60.47,7.36
150,555.9,0.0500,-60.54,9.38
151,562.3,0.0500,-59.34,15.10
152,568.9,0.0500,-59.55,12.14
153,575.4,0.0500,-59.79,17.82
154,582.1,0.0500,-59.96,17.16
155,588.8,0.0500,-60.32,14.60
156,595.7,0.0500,-60.35,18.34
157,602.6,0.0500,-60.06,18.64
158,609.5,0.0500,-59.38,12.76
159,616.6,0.0500,-60.17,17.93
160,623.7,0.0500,-59.25,18.71
161,631.0,0.0500,-60.03,21.57
162,638.3,0.0500,-59.93,18.74
163,645.7,0.0500,-60.26,16.21
164,653.1,0.0500,-59.58,15.98
165,660.7,0.0500,-59.64,17.07
166,668.3,0.0500,-59.57,19.75
167,676.1,0.0500,-58.73,19.21
168,683.9,0.0500,-59.59,13.05
169,691.8,0.0500,-58.81,20.71
170,699.8,0.0500,-59.97,17.93
171,707.9,0.0500,-59.34,21.54
172,716.1,0.0500,-59.08,19.62
173,724.4,0.0500,-59.16,14.12
174,732.8,0.0500,-59.15,14.21
175,741.3,0.0500,-59.00,16.04
176,749.9,0.0500,-59.15,20.95
177,758.6,0.0500,-58.56,25.24
178,767.4,0.0500,-59.35,22.79
179,776.2,0.0500,-60.37,22.15
180,785.2,0.0500,-58.90,19.79
181,794.3,0.0500,-59.50,20.52
182,803.5,0.0500,-59.51,22.01
183,812.8,0.0500,-59.19,19.97
184,822.2,0.0500,-59.52,19.81
185,831.8,0.0500,-59.06,24.13
186,841.4,0.0500,-59.71,19.17
187,851.1,0.0500,-59.50,22.35
188,861.0,0.0500,-59.26,19.34
189,871.0,0.0500,-59.33,22.70
190,881.0,0.0500,-59.10,21.78
191,891.3,0.0500,-59.61,20.13
192,901.6,0.0500,-59.51,19.87
193,912.0,0.0500,-59.65,23.64
194,922.6,0.0500,-59.69,22.78
195,933.3,0.0500,-59.06,24.76
196,944.1,0.0500,-58.05,25.90
197,955.0,0.0500,-58.93,23.74
198,966.1,0.0500,-58.77,22.22
199,977.2,0.0500,-58.25,23.51
200,988.6,0.0500,-59.45,28.59
201,1000.0,0.0500,-59.30,26.69
202,1011.6,0.0500,-59.41,24.20
203,1023.3,0.0500,-59.57,22.38
204,1035.1,0.0500,-59.15,24.00
205,1047.1,0.0500,-59.08,29.04
206,1059.3,0.0500,-59.17,24.71
207,1071.5,0.0500,-58.83,25.92
208,1083.9,0.0500,-58.57,31.00
209,1096.5,0.0500,-58.23,28.03
210,1109.2,0.0500,-58.29,29.27
211,1122.0,0.0500,-59.74,22.00
212,1135.0,0.0500,-58.52,36.54
213,1148.2,0.0500,-59.16,28.31
214,1161.4,0.0500,-58.02,25.40
215,1174.9,0.0500,-58.39,26.27
216,1188.5,0.0500,-58.89,26.60
217,1202.3,0.0500,-58.92,28.69
218,1216.2,0.0500,-58.44,31.70
219,1230.3,0.0500,-59.41,31.91
220,1244.5,0.0500,-59.08,29.74
221,1258.9,0.0500,-58.61,28.99
222,1273.5,0.0500,-58.70,26.98
223,1288.2,0.0500,-58.55,30.21
224,1303.2,0.0500,-58.55,28.23
225,1318.3,0.0500,-58.34,31.14
226,1333.5,0.0500,-59.41,30.98
227,1349.0,0.0500,-59.32,29.20
228,1364.6,0.0500,-58.43,28.16
229,1380.4,0.0500,-58.23,33.04
230,1396.4,0.0500,-58.37,29.77
231,1412.5,0.0500,-58.00,32.40
232,1428.9,0.0500,-58.00,35.74
233,1445.4,0.0500,-58.65,34.35
234,1462.2,0.0500,-58.72,34.36
235,1479.1,0.0500,-58.75,32.41
236,1496.2,0.0500,-58.06,35.56
237,1513.6,0.0500,-57.90,35.22
238,1531.1,0.0500,-58.02,30.00
239,1548.8,0.0500,-56.88,38.88
240,1566.8,0.0500,-58.75,29.87
241,1584.9,0.0500,-59.34,19.53
242,1603.2,0.0500,-57.21,25.61
243,1621.8,0.0500,-58.00,34.09
244,1640.6,0.0500,-58.65,33.66
245,1659.6,0.0500,-57.26,37.75
246,1678.8,0.0500,-57.46,39.42
247,1698.2,0.0500,-57.54,37.93
248,1717.9,0.0500,-58.24,32.60
249,1737.8,0.0500,-58.16,37.86
250,1757.9,0.0500,-58.22,42.28
251,1778.3,0.0500,-58.00,35.60
252,1798.9,0.0500,-56.76,43.41
253,1819.7,0.0500,-57.80,41.77
254,1840.8,0.0500,-57.77,41.58
255,1862.1,0.0500,-57.22,35.76
256,1883.6,0.0500,-57.49,36.50
257,1905.5,0.0500,-57.26,35.77
258,1927.5,0.0500,-56.54,39.59
259,1949.8,0.0500,-56.08,38.66
260,1972.4,0.0500,-56.60,42.43
261,1995.3,0.0500,-57.05,38.72
262,2018.4,0.0500,-57.00,40.45
263,2041.7,0.0500,-57.16,42.31
264,2065.4,0.0500,-56.65,42.21
265,2089.3,0.0500,-56.78,41.62
266,2113.5,0.0500,-56.90,42.00
267,2138.0,0.0500,-57.13,41.90
268,2162.7,0.0500,-56.55,44.08
269,2187.8,0.0500,-57.02,42.57
270,2213.1,0.0500,-56.80,42.38
271,2238.7,0.0500,-56.61,43.27
272,2264.6,0.0500,-56.91,45.30
273,2290.9,0.0500,-56.68,44.49
274,2317.4,0.0500,-56.66,45.58
275,2344.2,0.0500,-56.91,51.65
276,2371.4,0.0500,-56.50,45.02
277,2398.8,0.0500,-56.70,44.33
278,2426.6,0.0500,-55.68,43.42
279,2454.7,0.0500,-55.98,49.46
280,2483.1,0.0500,-55.87,54.90
281,2511.9,0.0500,-56.26,45.10
282,2541.0,0.0500,-56.22,40.68
283,2570.4,0.0500,-55.68,46.54
284,2600.2,0.0500,-55.98,47.87
285,2630.3,0.0500,-56.12,48.33
286,2660.7,0.0500,-56.37,45.79
287,2691.5,0.0500,-55.89,52.51
288,2722.7,0.0500,-55.95,46.68
289,2754.2,0.0500,-54.87,48.09
290,2786.1,0.0500,-55.95,52.77
291,2818.4,0.0500,-55.41,47.25
292,2851.0,0.0500,-55.53,48.85
293,2884.0,0.0500,-56.03,53.71
294,2917.4,0.0500,-55.39,50.76
295,2951.2,0.0500,-55.39,51.86
296,2985.4,0.0500,-55.11,50.11
297,3020.0,0.0500,-55.12,48.13
298,3054.9,0.0500,-55.08,49.27
299,3090.3,0.0500,-55.58,50.86
300,3126.1,0.0500,-55.38,56.44
301,3162.3,0.0500,-54.79,50.77
302,3198.9,0.0500,-54.97,54.45
303,3235.9,0.0500,-54.67,54.48
304,3273.4,0.0500,-54.99,53.65
305,3311.3,0.0500,-54.37,52.73
306,3349.7,0.0500,-54.71,54.45
307,3388.4,0.0500,-54.62,53.54
308,3427.7,0.0500,-53.79,54.73
309,3467.4,0.0500,-54.13,54.52
310,3507.5,0.0500,-54.08,54.56
311,3548.1,0.0500,-54.48,54.07
312,3589.2,0.0500,-54.53,55.94
313,3630.8,0.0500,-54.47,54.99
314,3672.8,0.0500,-54.30,57.27
315,3715.4,0.0500,-54.34,57.30
316,3758.4,0.0500,-54.21,57.27
317,3801.9,0.0500,-54.25,63.09
318,3845.9,0.0500,-53.91,63.02
319,3890.5,0.0500,-53.86,56.37
320,3935.5,0.0500,-53.18,50.59
321,3981.1,0.0500,-53.11,59.46
322,4027.2,0.0500,-53.51,57.27
323,4073.8,0.0500,-53.36,57.28
324,4121.0,0.0500,-53.68,59.59
325,4168.7,0.0500,-53.43,59.85
326,4217.0,0.0500,-52.99,56.86
327,4265.8,0.0500,-53.19,61.55
328,4315.2,0.0500,-52.90,58.22
329,4365.2,0.0500,-53.09,60.02
330,4415.7,0.0500,-53.08,59.57
331,4466.8,0.0500,-52.89,59.02
332,4518.6,0.0500,-52.53,58.60
333,4570.9,0.0500,-52.73,59.55
334,4623.8,0.0500,-52.52,59.97
335,4677.4,0.0500,-52.34,56.38
336,4731.5,0.0500,-52.11,60.70
337,4786.3,0.0500,-52.63,61.01
338,4841.7,0.0500,-52.07,61.89
339,4897.8,0.0500,-52.10,61.31
340,4954.5,0.0500,-52.13,58.53
341,5011.9,0.0500,-52.32,67.25
342,5069.9,0.0500,-51.72,62.79
343,5128.6,0.0500,-51.55,62.30
344,5188.0,0.0500,-52.01,63.24
345,5248.1,0.0500,-51.66,60.99
346,5308.8,0.0500,-51.36,60.18
347,5370.3,0.0500,-51.55,62.16
348,5432.5,0.0500,-51.83,64.22
349,5495.4,0.0500,-51.36,66.97
350,5559.0,0.0500,-50.68,66.99
351,5623.4,0.0500,-51.60,63.82
352,5688.5,0.0500,-51.59,63.07
353,5754.4,0.0500,-50.96,64.15
354,5821.0,0.0500,-50.90,64.56
355,5888.4,0.0500,-50.80,64.52
356,5956.6,0.0500,-51.32,64.65
357,6025.6,0.0500,-50.85,65.23
358,6095.4,0.0500,-50.74,67.47
359,6166.0,0.0500,-50.84,65.20
360,6237.3,0.0500,-50.31,66.44
361,6309.6,0.0500,-50.44,67.01
362,6382.6,0.0500,-50.15,66.62
363,6456.5,0.0500,-50.37,67.13
364,6531.3,0.0500,-50.10,66.87
365,6606.9,0.0500,-49.93,66.34
366,6683.4,0.0500,-49.52,68.02
367,6760.8,0.0500,-49.87,68.41
368,6839.1,0.0500,-49.83,68.17
369,6918.3,0.0500,-50.04,68.26
370,6998.4,0.0500,-49.36,65.06
371,7079.5,0.0500,-49.51,70.63
372,7161.4,0.0500,-50.20,70.86
373,7244.4,0.0500,-49.21,69.71
374,7328.2,0.0500,-49.11,67.46
375,7413.1,0.0500,-48.86,70.71
376,7498.9,0.0500,-48.98,72.21
377,7585.8,0.0500,-48.80,69.95
378,7673.6,0.0500,-48.98,69.26
379,7762.5,0.0500,-49.03,69.90
380,7852.4,0.0500,-48.65,70.72
381,7943.3,0.0500,-48.90,69.16
382,8035.3,0.0500,-48.56,69.80
383,8128.3,0.0500,-48.49,70.66
384,8222.4,0.0500,-48.50,68.82
385,8317.6,0.0500,-48.43,70.10
386,8414.0,0.0500,-48.14,69.73
387,8511.4,0.0500,-47.98,71.47
388,8609.9,0.0500,-48.14,70.92
389,8709.6,0.0500,-47.95,71.54
390,8810.5,0.0500,-47.91,70.94
391,8912.5,0.0500,-47.91,71.41
392,9015.7,0.0500,-48.22,71.25
393,9120.1,0.0500,-47.70,70.01
394,9225.7,0.0500,-47.69,71.14
395,9332.5,0.0500,-47.24,71.78
396,9440.6,0.0500,-47.44,71.60
397,9549.9,0.0500,-47.27,71.15
398,9660.5,0.0500,-47.45,72.76
399,9772.4,0.0500,-47.21,72.30
400,9885.5,0.0500,-47.04,73.85
401,10000.0,0.0500,-46.79,71.48
402,10115.8,0.0500,-47.00,72.47
403,10232.9,0.0500,-46.67,73.16
404,10351.4,0.0500,-46.67,73.32
405,10471.3,0.0500,-46.45,72.90
406,10592.5,0.0500,-46.56,73.27
407,10715.2,0.0500,-46.31,73.56
408,10839.3,0.0500,-46.23,73.06
409,10964.8,0.0500,-46.22,72.94
410,11091.7,0.0500,-46.02,73.44
411,11220.2,0.0500,-46.04,74.25
412,11350.1,0.0500,-45.80,74.04
413,11481.5,0.0500,-45.76,74.08
414,11614.5,0.0500,-45.74,73.31
415,11749.0,0.0500,-45.77,73.27
416,11885.0,0.0500,-45.43,74.17
417,12022.6,0.0500,-45.44,73.78
418,12161.9,0.0500,-45.31,73.71
419,12302.7,0.0500,-45.21,76.59
420,12445.1,0.0500,-45.21,74.72
421,12589.3,0.0500,-45.12,74.92
422,12735.0,0.0500,-45.04,74.82
423,12882.5,0.0500,-44.78,75.00
424,13031.7,0.0500,-44.80,74.94
425,13182.6,0.0500,-44.75,75.64
426,13335.2,0.0500,-44.71,75.14
427,13489.6,0.0500,-44.50,74.61
428,13645.8,0.0500,-44.40,76.08
429,13803.8,0.0500,-44.15,76.62
430,13963.7,0.0500,-44.26,76.98
431,14125.4,0.0500,-44.03,75.84
432,14288.9,0.0500,-44.15,76.26
433,14454.4,0.0500,-44.02,76.62
434,14621.8,0.0500,-43.90,75.71
435,14791.1,0.0500,-43.78,76.25
436,14962.4,0.0500,-43.67,75.36
437,15135.6,0.0500,-43.62,77.04
438,15310.9,0.0500,-43.58,76.45
439,15488.2,0.0500,-43.43,76.18
440,15667.5,0.0500,-43.28,75.72
441,15848.9,0.0500,-43.18,76.67
442,16032.5,0.0500,-43.12,75.70
443,16218.1,0.0500,-43.05,76.73
444,16405.9,0.0500,-42.91,76.31
445,16595.9,0.0500,-42.91,76.62
446,16788.0,0.0500,-42.79,77.53
447,16982.4,0.0500,-42.66,76.63
448,17179.1,0.0500,-42.69,77.11
449,17378.0,0.0500,-42.47,76.83
450,17579.2,0.0500,-42.59,76.36
451,17782.8,0.0500,-42.31,77.28
452,17988.7,0.0500,-42.23,77.08
453,18197.0,0.0500,-42.12,77.70
454,18407.7,0.0500,-42.02,77.30
455,18620.9,0.0500,-41.97,77.48
456,18836.5,0.0500,-41.79,77.10
457,19054.6,0.0500,-41.62,77.74
458,19275.2,0.0500,-41.66,77.96
459,19498.4,0.0500,-41.55,77.18
460,19724.2,0.0500,-41.53,77.52
461,19952.6,0.0500,-41.35,77.91
462,20183.7,0.0500,-41.28,77.80
463,20417.4,0.0500,-41.27,77.93
464,20653.8,0.0500,-41.10,77.67
465,20893.0,0.0500,-40.99,77.60
466,21134.9,0.0500,-40.92,77.61
467,21379.6,0.0500,-40.81,78.21
468,21627.2,0.0500,-40.68,77.93
469,21877.6,0.0500,-40.61,77.91
470,22130.9,0.0500,-40.54,77.87
471,22387.2,0.0500,-40.38,78.18
472,22646.4,0.0500,-40.35,78.50
473,22908.7,0.0500,-40.30,78.18
474,23173.9,0.0500,-40.31,77.67
475,23442.3,0.0500,-40.10,78.55
476,23713.7,0.0500,-40.07,78.29
477,23988.3,0.0500,-40.00,78.49
478,24266.1,0.0500,-39.75,78.48
479,24547.1,0.0500,-39.72,78.57
480,24831.3,0.0500,-39.61,78.19
481,25118.9,0.0500,-39.47,78.07
482,25409.7,0.0500,-39.38,78.49
483,25704.0,0.0500,-39.32,78.65
484,26001.6,0.0500,-39.20,78.76
485,26302.7,0.0500,-39.18,78.08
486,26607.3,0.0500,-39.03,78.78
487,26915.3,0.0500,-38.98,78.66
488,27227.0,0.0500,-38.90,78.71
489,27542.3,0.0500,-38.79,78.77
490,27861.2,0.0500,-38.69,78.87
491,28183.8,0.0500,-38.54,79.06
492,28510.2,0.0500,-38.44,78.99
493,28840.3,0.0500,-38.45,79.05
494,29174.3,0.0500,-38.28,78.89
495,29512.1,0.0500,-38.28,78.97
496,29853.8,0.0500,-38.17,79.15
497,30199.5,0.0500,-37.99,78.98
498,30549.2,0.0500,-37.95,79.05
499,30903.0,0.0500,-37.80,78.95
500,31260.8,0.0500,-37.76,78.93
501,31622.8,0.0500,-37.66,79.22
502,31989.0,0.0500,-37.49,79.02
503,32359.4,0.0500,-37.48,79.03
504,32734.1,0.0500,-37.36,78.89
505,33113.1,0.0500,-37.21,79.39
506,33496.5,0.0500,-37.07,79.04
507,33884.4,0.0500,-37.06,79.29
508,34276.8,0.0500,-36.94,79.54
509,34673.7,0.0500,-36.82,79.45
510,35075.2,0.0500,-36.79,79.54
511,35481.3,0.0500,-36.73,79.75
512,35892.2,0.0500,-36.58,79.36
513,36307.8,0.0500,-36.48,79.41
514,36728.2,0.0500,-36.34,79.44
515,37153.5,0.0500,-36.30,79.55
516,37583.7,0.0500,-36.21,79.66
517,38018.9,0.0500,-36.12,79.37
518,38459.2,0.0500,-36.04,79.63
519,38904.5,0.0500,-35.98,79.52
520,39355.0,0.0500,-35.83,79.34
521,39810.7,0.0500,-35.78,79.50
522,40271.7,0.0500,-35.63,79.66
523,40738.0,0.0500,-35.55,79.81
524,41209.8,0.0500,-35.50,79.41
525,41686.9,0.0500,-35.37,79.70
526,42169.7,0.0500,-35.25,79.79
527,42658.0,0.0500,-35.15,79.75
528,43151.9,0.0500,-35.06,79.36
529,43651.6,0.0500,-34.99,79.52
530,44157.0,0.0500,-34.94,79.98
531,44668.4,0.0500,-34.75,79.71
532,45185.6,0.0500,-34.70,79.65
533,45708.8,0.0500,-34.55,79.71
534,46238.1,0.0500,-34.48,79.69
535,46773.5,0.0500,-34.44,79.98
536,47315.1,0.0500,-34.25,80.36
537,47863.0,0.0500,-34.21,80.06
538,48417.2,0.0500,-34.09,79.93
539,48977.9,0.0500,-34.05,79.90
540,49545.0,0.0500,-33.98,80.22
541,50118.7,0.0500,-33.82,80.00
542,50699.1,0.0500,-33.71,79.70
543,51286.1,0.0500,-33.60,79.80
544,51880.0,0.0500,-33.48,79.56
545,52480.7,0.0500,-33.42,79.74
546,53088.4,0.0500,-33.26,79.95
547,53703.2,0.0500,-33.12,79.69
548,54325.0,0.0500,-33.07,79.87
549,54954.1,0.0500,-33.09,79.62
550,55590.4,0.0500,-33.02,79.61
551,56234.1,0.0500,-32.80,79.66
552,56885.3,0.0500,-32.81,79.18
553,57544.0,0.0500,-32.63,79.52
554,58210.3,0.0500,-32.53,79.66
555,58884.4,0.0500,-32.47,79.82
556,59566.2,0.0500,-32.39,79.52
557,60256.0,0.0500,-32.24,79.45
558,60953.7,0.0500,-32.12,79.96
559,61659.5,0.0500,-32.07,79.40
560,62373.5,0.0500,-31.97,79.30
561,63095.7,0.0500,-31.88,79.70
562,63826.3,0.0500,-31.74,79.75
563,64565.4,0.0500,-31.70,79.37
564,65313.1,0.0500,-31.57,79.56
565,66069.3,0.0500,-31.43,79.51
566,66834.4,0.0500,-31.39,79.55
567,67608.3,0.0500,-31.34,79.35
568,68391.2,0.0500,-31.29,79.49
569,69183.1,0.0500,-31.12,79.90
570,69984.2,0.0500,-30.99,79.43
571,70794.6,0.0500,-30.89,79.38
572,71614.3,0.0500,-30.80,79.74
573,72443.6,0.0500,-30.74,79.50
574,73282.5,0.0500,-30.57,79.27
575,74131.0,0.0500,-30.52,79.40
576,74989.4,0.0500,-30.46,79.24
577,75857.8,0.0500,-30.38,79.24
578,76736.1,0.0500,-30.21,79.35
579,77624.7,0.0500,-30.08,79.33
580,78523.6,0.0500,-30.01,79.52
581,79432.8,0.0500,-29.90,79.28
582,80352.6,0.0500,-29.86,79.49
583,81283.1,0.0500,-29.75,79.26
584,82224.3,0.0500,-29.59,79.11
585,83176.4,0.0500,-29.52,79.17
586,84139.5,0.0500,-29.39,79.22
587,85113.8,0.0500,-29.28,79.43
588,86099.4,0.0500,-29.24,79.60
589,87096.4,0.0500,-29.20,78.95
590,88104.9,0.0500,-29.00,79.50
591,89125.1,0.0500,-28.77,79.24
592,90157.1,0.0500,-28.78,79.10
593,91201.1,0.0500,-28.70,79.11
594,92257.1,0.0500,-28.65,78.88
595,93325.4,0.0500,-28.47,79.04
596,94406.1,0.0500,-28.38,79.19
597,95499.3,0.0500,-28.21,79.09
598,96605.1,0.0500,-28.19,78.99
599,97723.7,0.0500,-28.08,78.83
600,98855.3,0.0500,-28.01,78.72
601,100000.0,0.0500,-27.81,78.56
602,101157.9,0.0500,-27.69,78.66
603,102329.3,0.0500,-27.62,78.61
604,103514.2,0.0500,-27.53,78.74
605,104712.9,0.0500,-27.44,78.55
606,105925.4,0.0500,-27.30,78.74
607,107151.9,0.0500,-27.18,78.77
608,108392.7,0.0500,-27.07,78.64
609,109647.8,0.0500,-26.97,78.34
610,110917.5,0.0500,-26.87,78.40
611,112201.8,0.0500,-26.76,78.40
612,113501.1,0.0500,-26.68,78.36
613,114815.4,0.0500,-26.54,78.49
614,116144.9,0.0500,-26.41,78.34
615,117489.8,0.0500,-26.26,78.11
616,118850.2,0.0500,-26.18,78.16
617,120226.4,0.0500,-26.11,78.22
618,121618.6,0.0500,-25.93,78.17
619,123026.9,0.0500,-25.79,78.32
620,124451.5,0.0500,-25.73,77.87
621,125892.5,0.0500,-25.71,77.62
622,127350.3,0.0500,-25.51,77.82
623,128825.0,0.0500,-25.43,77.59
624,130316.7,0.0500,-25.28,77.50
625,131825.7,0.0500,-25.18,77.68
626,133352.1,0.0500,-25.04,77.59
627,134896.3,0.0500,-24.94,77.35
628,136458.3,0.0500,-24.76,77.66
629,138038.4,0.0500,-24.81,77.12
630,139636.8,0.0500,-24.61,77.67
631,141253.8,0.0500,-24.47,77.10
632,142889.4,0.0500,-24.33,77.47
633,144544.0,0.0500,-24.20,77.02
634,146217.7,0.0500,-24.23,76.96
635,147910.8,0.0500,-24.01,77.50
636,149623.6,0.0500,-23.86,76.81
637,151356.1,0.0500,-23.89,76.53
638,153108.7,0.0500,-23.69,76.71
639,154881.7,0.0500,-23.44,76.66
640,156675.1,0.0500,-23.37,76.53
641,158489.3,0.0500,-23.32,76.11
642,160324.5,0.0500,-23.18,76.42
643,162181.0,0.0500,-22.98,76.18
644,164059.0,0.0500,-22.96,77.42
645,165958.7,0.0500,-22.74,75.56
646,167880.4,0.0500,-22.55,75.90
647,169824.4,0.0500,-22.52,75.77
648,171790.8,0.0500,-22.42,75.13
649,173780.1,0.0500,-22.21,75.02
650,175792.4,0.0500,-22.00,74.91
651,177827.9,0.0500,-21.95,75.01
652,179887.1,0.0500,-22.02,74.01
653,181970.1,0.0500,-21.70,74.81
654,184077.2,0.0500,-21.50,75.23
655,186208.7,0.0500,-21.42,73.78
656,188364.9,0.0500,-21.25,74.09
657,190546.1,0.0500,-21.05,74.10
658,192752.5,0.0500,-20.84,72.26
659,194984.5,0.0500,-20.86,73.18
660,197242.3,0.0500,-20.65,73.78
661,199526.2,0.0500,-20.55,73.39
662,201836.6,0.0500,-20.34,73.27
663,204173.8,0.0500,-20.22,73.07
664,206538.0,0.0500,-20.03,73.14
665,208929.6,0.0500,-19.91,72.56
666,211348.9,0.0500,-19.70,72.68
667,213796.2,0.0500,-19.59,72.30
668,216271.9,0.0500,-19.35,73.03
669,218776.2,0.0500,-19.23,71.80
670,221309.5,0.0500,-19.08,71.33
671,223872.1,0.0500,-18.90,72.44
672,226464.4,0.0500,-18.73,70.83
673,229086.8,0.0500,-18.54,70.75
674,231739.5,0.0500,-18.41,70.42
675,234422.9,0.0500,-18.26,70.08
676,237137.4,0.0500,-18.03,70.39
677,239883.3,0.0500,-17.82,70.04
678,242661.0,0.0500,-17.70,69.30
679,245470.9,0.0500,-17.56,70.16
680,248313.3,0.0500,-17.35,67.48
681,251188.6,0.0500,-17.23,68.24
682,254097.3,0.0500,-16.95,68.28
683,257039.6,0.0500,-16.68,64.80
684,260016.0,0.0500,-16.66,67.21
685,263026.8,0.0500,-16.42,67.01
686,266072.5,0.0500,-16.15,66.13
687,269153.5,0.0500,-16.01,65.79
688,272270.1,0.0500,-15.77,65.19
689,275422.9,0.0500,-15.47,64.49
690,278612.1,0.0500,-15.11,64.00
691,281838.3,0.0500,-15.08,63.45
692,285101.8,0.0500,-14.85,62.92
693,288403.2,0.0500,-14.60,62.55
694,291742.7,0.0500,-14.38,61.79
695,295120.9,0.0500,-14.16,60.80
696,298538.3,0.0500,-13.93,60.20
697,301995.2,0.0500,-13.67,59.40
698,305492.1,0.0500,-13.47,58.39
699,309029.5,0.0500,-13.14,57.79
700,312607.9,0.0500,-12.94,56.73
701,316227.8,0.0500,-12.65,55.88
702,319889.5,0.0500,-12.12,54.17
703,323593.7,0.0500,-12.04,53.62
704,327340.7,0.0500,-11.80,52.46
705,331131.1,0.0500,-11.30,50.00
706,334965.4,0.0500,-11.22,50.11
707,338844.2,0.0500,-10.87,48.52
708,342767.8,0.0500,-10.62,47.03
709,346736.9,0.0500,-10.28,45.29
710,350751.9,0.0500,-10.07,43.01
711,354813.4,0.0500,-9.62,41.24
712,358921.9,0.0500,-9.46,41.05
713,363078.1,0.0500,-9.04,37.52
714,367282.3,0.0500,-8.71,35.12
715,371535.2,0.0500,-8.36,32.31
716,375837.4,0.0500,-8.35,31.25
717,380189.4,0.0500,-7.81,27.05
718,384591.8,0.0500,-7.59,23.48
719,389045.1,0.0500,-7.00,20.66
720,393550.1,0.0500,-6.88,18.13
721,398107.2,0.0500,-6.65,12.68
722,402717.0,0.0500,-6.67,9.45
723,407380.3,0.0500,-6.52,5.72
724,412097.5,0.0500,-6.44,1.73
725,416869.4,0.0500,-6.45,-2.32
726,421696.5,0.0500,-6.41,-6.03
727,426579.5,0.0500,-6.39,-10.95
728,431519.1,0.0500,-6.72,-17.05
729,436515.8,0.0500,-6.60,-19.14
730,441570.4,0.0500,-6.84,-23.07
731,446683.6,0.0500,-6.96,-26.64
732,451855.9,0.0500,-7.20,-30.60
733,457088.2,0.0500,-7.45,-34.02
734,462381.0,0.0500,-7.43,-39.91
735,467735.1,0.0500,-8.02,-40.13
736,473151.3,0.0500,-8.24,-42.10
737,478630.1,0.0500,-8.65,-45.88
738,484172.4,0.0500,-8.95,-48.50
739,489778.8,0.0500,-9.32,-50.86
740,495450.2,0.0500,-9.60,-52.90
741,501187.2,0.0500,-9.97,-54.60
742,506990.7,0.0500,-10.30,-56.60
743,512861.4,0.0500,-10.66,-58.34
744,518800.0,0.0500,-10.91,-59.99
745,524807.5,0.0500,-11.50,-60.34
746,530884.4,0.0500,-11.93,-62.63
747,537031.8,0.0500,-11.91,-64.21
748,543250.3,0.0500,-12.17,-65.60
749,549540.9,0.0500,-12.98,-62.68
750,555904.3,0.0500,-12.84,-68.25
751,562341.3,0.0500,-13.07,-68.08
752,568852.9,0.0500,-13.38,-69.56
753,575439.9,0.0500,-13.60,-70.29
754,582103.2,0.0500,-13.81,-71.45
755,588843.7,0.0500,-14.71,-72.97
756,595662.1,0.0500,-14.38,-72.66
757,602559.6,0.0500,-14.00,-71.25
758,609536.9,0.0500,-14.89,-73.97
759,616595.0,0.0500,-15.18,-74.64
760,623734.8,0.0500,-15.50,-76.29
761,630957.3,0.0500,-15.90,-77.04
762,638263.5,0.0500,-15.86,-77.77
763,645654.2,0.0500,-16.19,-77.60
764,653130.6,0.0500,-16.36,-77.71
765,660693.4,0.0500,-16.62,-79.22
766,668343.9,0.0500,-17.97,-90.20
767,676083.0,0.0500,-16.82,-78.49
768,683911.6,0.0500,-16.90,-81.29
769,691831.0,0.0500,-17.44,-73.65
770,699842.0,0.0500,-17.80,-81.33
771,707945.8,0.0500,-18.31,-81.14
772,716143.4,0.0500,-17.23,-79.53
773,724436.0,0.0500,-18.75,-81.81
774,732824.5,0.0500,-18.91,-81.93
775,741310.2,0.0500,-19.17,-82.71
776,749894.2,0.0500,-19.10,-82.82
777,758577.6,0.0500,-19.84,-82.78
778,767361.5,0.0500,-19.54,-83.48
779,776247.1,0.0500,-19.91,-84.97
780,785235.6,0.0500,-20.03,-83.04
781,794328.2,0.0500,-20.34,-83.03
782,803526.1,0.0500,-20.11,-82.28
783,812830.5,0.0500,-21.44,-86.21
784,822242.6,0.0500,-19.03,-85.72
785,831763.8,0.0500,-20.76,-82.62
786,841395.1,0.0500,-21.59,-83.07
787,851138.0,0.0500,-21.15,-84.46
788,860993.8,0.0500,-22.39,-84.47
789,870963.6,0.0500,-21.86,-81.91
790,881048.9,0.0500,-22.47,-82.02
791,891250.9,0.0500,-22.57,-93.59
792,901571.1,0.0500,-21.19,-75.98
793,912010.8,0.0500,-23.20,-77.36
794,922571.4,0.0500,-23.26,-73.98
795,933254.3,0.0500,-23.31,-77.62
796,944060.9,0.0500,-23.45,-74.34
797,954992.6,0.0500,-24.30,-74.87
798,966050.9,0.0500,-23.42,-68.40
799,977237.2,0.0500,-22.46,-87.60
800,988553.1,0.0500,-22.04,-67.75
801,1000000.0,0.0500,-22.37,-68.26
802,1011579.5,0.0500,-22.32,-74.84
803,1023293.0,0.0500,-22.53,-67.59
804,1035142.2,0.0500,-21.90,-76.61
805,1047128.5,0.0500,-22.67,-80.55
806,1059253.7,0.0500,-21.64,-71.09
807,1071519.3,0.0500,-22.14,-76.29
808,1083926.9,0.0500,-21.66,-82.30
809,1096478.2,0.0500,-21.58,-80.97
810,1109174.8,0.0500,-21.42,-82.39
811,1122018.5,0.0500,-21.83,-85.55
812,1135010.8,0.0500,-21.89,-83.74
813,1148153.6,0.0500,-22.01,-87.22
814,1161448.6,0.0500,-22.86,-80.75
815,1174897.6,0.0500,-23.47,-86.64
816,1188502.2,0.0500,-22.51,-93.21
817,1202264.4,0.0500,-23.39,-90.12
818,1216186.0,0.0500,-23.88,-93.28
819,1230268.8,0.0500,-22.51,-86.27
820,1244514.6,0.0500,-23.83,-87.10
821,1258925.4,0.0500,-25.00,-91.97
822,1273503.1,0.0500,-25.43,-87.63
823,1288249.6,0.0500,-24.57,-94.76
824,1303166.8,0.0500,-23.86,-87.31
825,1318256.7,0.0500,-23.66,-99.90
826,1333521.4,0.0500,-24.44,-93.27
827,1348962.9,0.0500,-24.50,-94.66
828,1364583.1,0.0500,-25.59,-88.24
829,1380384.3,0.0500,-24.80,-91.30
830,1396368.4,0.0500,-24.46,-97.66
831,1412537.5,0.0500,-25.41,-92.95
832,1428894.0,0.0500,-25.43,-101.07
833,1445439.8,0.0500,-25.47,-97.14
834,1462177.2,0.0500,-25.25,-97.17
835,1479108.4,0.0500,-27.46,-82.77
836,1496235.7,0.0500,-26.03,-102.21
837,1513561.2,0.0500,-26.27,-92.36
838,1531087.5,0.0500,-26.28,-106.13
839,1548816.6,0.0500,-25.56,-91.98
840,1566751.1,0.0500,-27.03,-111.74
841,1584893.2,0.0500,-26.60,-103.49
842,1603245.4,0.0500,-28.77,-114.38
843,1621810.1,0.0500,-27.29,-104.46
844,1640589.8,0.0500,-27.37,-107.17
845,1659586.9,0.0500,-28.40,-88.48
846,1678804.0,0.0500,-29.16,-93.12
847,1698243.7,0.0500,-29.50,-112.69
848,1717908.4,0.0500,-27.86,-102.29
849,1737800.8,0.0500,-26.06,-95.70
850,1757923.6,0.0500,-30.22,-100.96
851,1778279.4,0.0500,-28.24,-112.53
852,1798870.9,0.0500,-29.61,-110.33
853,1819700.9,0.0500,-31.59,-116.68
854,1840772.0,0.0500,-30.93,-111.11
855,1862087.1,0.0500,-31.00,-117.78
856,1883649.1,0.0500,-25.02,-93.70
857,1905460.7,0.0500,-32.03,-115.54
858,1927524.9,0.0500,-34.87,-117.99
859,1949844.6,0.0500,-35.09,-59.91
860,1972422.7,0.0500,-39.95,-92.23
861,1995262.3,0.0500,-24.48,-81.85
862,2018366.4,0.0500,-38.28,29.39
863,2041737.9,0.0500,-38.00,-46.31
864,2065380.2,0.0500,-31.33,-62.66
865,2089296.1,0.0500,-30.78,-48.56
866,2113489.0,0.0500,-30.29,-76.23
867,2137962.1,0.0500,-27.33,-65.09
868,2162718.5,0.0500,-28.99,-59.84
869,2187761.6,0.0500,-42.19,-151.52
870,2213094.7,0.0500,-27.53,-75.70
871,2238721.1,0.0500,-28.39,-72.17
872,2264644.3,0.0500,-29.94,-84.62
873,2290867.7,0.0500,-27.99,-83.39
874,2317394.6,0.0500,-33.71,-86.19
875,2344228.8,0.0500,-27.93,-104.26
876,2371373.7,0.0500,-27.56,-97.22
877,2398832.9,0.0500,-27.80,-90.39
878,2426610.1,0.0500,-29.96,-87.69
879,2454708.9,0.0500,-26.23,-132.59
880,2483133.1,0.0500,-33.04,-105.54
881,2511886.4,0.0500,-30.52,-99.72
882,2540972.7,0.0500,-31.87,-96.48
883,2570395.8,0.0500,-27.16,-80.76
884,2600159.6,0.0500,-34.38,-105.33
885,2630268.0,0.0500,-34.35,-80.08
886,2660725.1,0.0500,-31.57,-163.86
887,2691534.8,0.0500,-34.29,-100.63
888,2722701.3,0.0500,-32.98,-91.17
889,2754228.7,0.0500,-35.50,-114.69
890,2786121.2,0.0500,-36.02,-150.69
891,2818382.9,0.0500,-30.52,-78.55
892,2851018.3,0.0500,-28.84,162.69
893,2884031.5,0.0500,-36.11,-81.28
894,2917427.0,0.0500,-47.20,-88.23
895,2951209.2,0.0500,-36.63,-90.02
896,2985382.6,0.0500,-37.55,-80.05
897,3019951.7,0.0500,-35.87,-79.79
898,3054921.1,0.0500,-26.71,-101.71
899,3090295.4,0.0500,-29.70,-57.45
900,3126079.4,0.0500,-33.46,-90.17
901,3162277.7,0.0500,-33.15,-101.19
902,3198895.1,0.0500,-32.69,-49.30
903,3235936.6,0.0500,-32.54,-100.53
904,3273406.9,0.0500,-31.78,-86.48
905,3311311.2,0.0500,-33.51,-90.99
906,3349654.4,0.0500,-32.51,-104.21
907,3388441.6,0.0500,-31.98,-93.45
908,3427677.9,0.0500,-31.05,-110.01
909,3467368.5,0.0500,-35.14,-94.33
910,3507518.7,0.0500,-32.49,-93.50
911,3548133.9,0.0500,-31.75,-105.52
912,3589219.3,0.0500,-32.30,-109.24
913,3630780.5,0.0500,-37.20,-64.79
914,3672823.0,0.0500,-32.02,-98.23
915,3715352.3,0.0500,-35.21,-113.14
916,3758374.0,0.0500,-32.90,-115.06
917,3801894.0,0.0500,-39.03,-124.19
918,3845917.8,0.0500,-33.87,-98.16
919,3890451.4,0.0500,-35.07,-106.23
920,3935500.8,0.0500,-35.95,-105.89
921,3981071.7,0.0500,-35.89,-117.92
922,4027170.3,0.0500,-34.68,-109.03
923,4073802.8,0.0500,-35.77,-104.34
924,4120975.2,0.0500,-28.06,-113.89
925,4168693.8,0.0500,-40.90,-96.72
926,4216965.0,0.0500,-37.24,-109.65
927,4265795.2,0.0500,-32.79,168.28
928,4315190.8,0.0500,-34.28,-95.81
929,4365158.3,0.0500,-28.09,-114.33
930,4415704.5,0.0500,-36.91,-79.53
931,4466835.9,0.0500,-31.49,-115.54
932,4518559.4,0.0500,-42.83,-83.01
933,4570881.9,0.0500,-35.71,-120.33
934,4623810.2,0.0500,-35.17,-89.55
935,4677351.4,0.0500,-34.92,-103.35
936,4731512.6,0.0500,-37.01,-99.31
937,4786300.9,0.0500,-40.97,-115.65
938,4841723.7,0.0500,-41.71,-92.52
939,4897788.2,0.0500,-36.26,-92.47
940,4954501.9,0.0500,-35.07,-104.97
941,5011872.3,0.0500,-37.08,-110.62
942,5069907.1,0.0500,-28.16,-44.10
943,5128613.8,0.0500,-26.85,-70.63
944,5188000.4,0.0500,-35.81,-112.15
945,5248074.6,0.0500,-34.66,-98.73
946,5308844.4,0.0500,-49.90,-141.94
947,5370318.0,0.0500,-38.43,-86.98
948,5432503.3,0.0500,-36.28,-126.10
949,5495408.7,0.0500,-37.04,-94.15
950,5559042.6,0.0500,-38.41,-103.12
951,5623413.3,0.0500,-38.24,-126.50
952,5688529.3,0.0500,-37.68,-100.24
953,5754399.4,0.0500,-38.99,-114.16
954,5821032.2,0.0500,-41.64,-127.86
955,5888436.6,0.0500,-37.00,-110.33
956,5956621.4,0.0500,-37.20,-126.62
957,6025595.9,0.0500,-30.53,9.75
958,6095369.0,0.0500,-40.10,-116.02
959,6165950.0,0.0500,-46.59,-134.99
960,6237348.4,0.0500,-40.17,-95.11
961,6309573.4,0.0500,-38.23,-130.06
962,6382634.9,0.0500,-41.25,-121.01
963,6456542.3,0.0500,-37.71,-144.70
964,6531305.5,0.0500,-42.95,-8.88
965,6606934.5,0.0500,-40.07,-138.41
966,6683439.2,0.0500,-36.22,-116.21
967,6760829.8,0.0500,-40.86,-92.41
968,6839116.5,0.0500,-36.77,-158.59
969,6918309.7,0.0500,-42.20,-104.35
970,6998420.0,0.0500,-45.44,187.60
971,7079457.8,0.0500,-40.80,-127.29
972,7161434.1,0.0500,-38.16,-139.15
973,7244359.6,0.0500,-41.83,-96.34
974,7328245.3,0.0500,-39.94,-137.92
975,7413102.4,0.0500,-43.87,158.76
976,7498942.1,0.0500,-41.57,-135.50
977,7585775.8,0.0500,-47.49,184.73
978,7673614.9,0.0500,-39.97,-94.20
979,7762471.2,0.0500,-42.13,-30.32
980,7852356.3,0.0500,-43.09,188.35
981,7943282.3,0.0500,-46.86,-151.12
982,8035261.2,0.0500,-40.27,-139.63
983,8128305.2,0.0500,-36.86,-102.01
984,8222426.5,0.0500,-44.10,-102.32
985,8317637.7,0.0500,-40.19,177.81
986,8413951.4,0.0500,-40.44,-121.97
987,8511380.4,0.0500,-39.00,-164.13
988,8609937.5,0.0500,-37.83,-132.24
989,8709635.9,0.0500,-42.19,-104.51
990,8810488.7,0.0500,-40.26,-151.18
991,8912509.4,0.0500,-41.91,-122.35
992,9015711.4,0.0500,-44.05,-107.00
993,9120108.4,0.0500,-48.24,-124.74
994,9225714.3,0.0500,-41.67,-143.34
995,9332543.0,0.0500,-54.16,-45.50
996,9440608.8,0.0500,-45.47,-123.32
997,9549925.9,0.0500,-42.62,-100.53
998,9660508.8,0.0500,-38.76,-147.68
999,9772372.2,0.0500,-39.27,-149.43
1000,9885530.9,0.0500,-40.33,-120.83
1001,10000000.0,0.0500,-40.57,-120.78
