#, Frequency (Hz), Amplitude (Vpp), Gain (dB), Phase (°)
1,100.0,0.0500,-63.85,7.05
2,101.2,0.0500,-63.75,-4.45
3,102.3,0.0500,-64.87,1.15
4,103.5,0.0500,-63.31,1.25
5,104.7,0.0500,-64.53,3.93
6,105.9,0.0500,-63.14,-3.86
7,107.2,0.0500,-63.81,6.55
8,108.4,0.0500,-63.61,0.77
9,109.6,0.0500,-63.90,3.67
10,110.9,0.0500,-63.46,4.02
11,112.2,0.0500,-63.41,-0.53
12,113.5,0.0500,-63.64,1.97
13,114.8,0.0500,-64.25,7.33
14,116.1,0.0500,-62.67,3.85
15,117.5,0.0500,-62.33,1.76
16,118.9,0.0500,-64.94,0.74
17,120.2,0.0500,-63.58,-0.98
18,121.6,0.0500,-63.49,11.41
19,123.0,0.0500,-63.83,-4.44
20,124.5,0.0500,-64.44,0.97
21,125.9,0.0500,-64.09,7.15
22,127.4,0.0500,-63.47,-1.21
23,128.8,0.0500,-63.23,4.76
24,130.3,0.0500,-63.40,5.14
25,131.8,0.0500,-62.21,5.59
26,133.4,0.0500,-63.85,-3.15
27,134.9,0.0500,-63.91,4.93
28,136.5,0.0500,-64.07,0.95
29,138.0,0.0500,-63.58,-3.51
30,139.6,0.0500,-63.95,13.81
31,141.3,0.0500,-64.67,0.12
32,142.9,0.0500,-64.11,6.44
33,144.5,0.0500,-64.85,-1.14
34,146.2,0.0500,-63.80,1.53
35,147.9,0.0500,-63.88,-0.92
36,149.6,0.0500,-64.28,6.49
37,151.4,0.0500,-63.92,2.58
38,153.1,0.0500,-62.87,6.20
39,154.9,0.0500,-63.79,6.91
40,156.7,0.0500,-63.93,2.45
41,158.5,0.0500,-63.83,11.24
42,160.3,0.0500,-64.12,14.10
43,162.2,0.0500,-64.01,1.88
44,164.1,0.0500,-63.48,0.46
45,166.0,0.0500,-63.59,9.63
46,167.9,0.0500,-64.09,2.95
47,169.8,0.0500,-63.97,3.87
48,171.8,0.0500,-62.58,9.42
49,173.8,0.0500,-62.80,6.38
50,175.8,0.0500,-63.05,6.63
51,177.8,0.0500,-63.84,2.35
52,179.9,0.0500,-63.68,4.82
53,182.0,0.0500,-62.65,7.49
54,184.1,0.0500,-63.27,9.09
55,186.2,0.0500,-63.53,9.47
56,188.4,0.0500,-63.32,8.28
57,190.5,0.0500,-63.96,9.32
58,192.8,0.0500,-63.39,8.30
59,195.0,0.0500,-63.58,3.24
60,197.2,0.0500,-63.41,2.39
61,199.5,0.0500,-63.50,1.89
62,201.8,0.0500,-62.44,5.76
63,204.2,0.0500,-63.35,11.92
64,206.5,0.0500,-62.96,13.31
65,208.9,0.0500,-64.35,4.07
66,211.3,0.0500,-63.49,1.29
67,213.8,0.0500,-62.12,2.26
68,216.3,0.0500,-62.97,5.94
69,218.8,0.0500,-63.72,5.89
70,221.3,0.0500,-63.05,11.23
71,223.9,0.0500,-63.98,6.95
72,226.5,0.0500,-63.64,4.82
73,229.1,0.0500,-63.84,6.63
74,231.7,0.0500,-64.07,1.44
75,234.4,0.0500,-63.76,10.00
76,237.1,0.0500,-64.18,7.10
77,239.9,0.0500,-64.23,5.87
78,242.7,0.0500,-62.77,5.22
79,245.5,0.0500,-63.36,9.55
80,248.3,0.0500,-62.62,7.27
81,251.2,0.0500,-63.42,5.58
82,254.1,0.0500,-62.48,-0.29
83,257.0,0.0500,-62.64,7.32
84,260.0,0.0500,-62.10,6.05
85,263.0,0.0500,-64.14,9.50
86,266.1,0.0500,-63.19,7.48
87,269.2,0.0500,-63.29,10.02
88,272.3,0.0500,-63.38,15.20
89,275.4,0.0500,-63.11,12.68
90,278.6,0.0500,-63.53,7.92
91,281.8,0.0500,-63.55,6.11
92,285.1,0.0500,-62.74,5.40
93,288.4,0.0500,-63.49,10.29
94,291.7,0.0500,-63.48,9.32
95,295.1,0.0500,-63.57,10.22
96,298.5,0.0500,-62.63,8.16
97,302.0,0.0500,-62.90,6.54
98,305.5,0.0500,-63.03,12.01
99,309.0,0.0500,-63.00,6.10
100,312.6,0.0500,-63.18,11.30
101,316.2,0.0500,-62.65,5.33
102,319.9,0.0500,-62.46,11.50
103,323.6,0.0500,-63.65,9.48
104,327.3,0.0500,-63.15,6.62
105,331.1,0.0500,-62.86,10.79
106,335.0,0.0500,-63.09,9.30
107,338.8,0.0500,-63.54,12.09
108,342.8,0.0500,-63.41,6.07
109,346.7,0.0500,-62.30,7.36
110,350.8,0.0500,-62.83,5.03
111,354.8,0.0500,-61.94,12.53
112,358.9,0.0500,-63.56,12.63
113,363.1,0.0500,-63.65,12.53
114,367.3,0.0500,-63.00,9.03
115,371.5,0.0500,-62.29,12.18
116,375.8,0.0500,-62.50,7.45
117,380.2,0.0500,-63.44,12.31
118,384.6,0.0500,-62.71,9.96
119,389.0,0.0500,-62.44,9.81
120,393.6,0.0500,-62.99,10.06
121,398.1,0.0500,-62.88,13.20
122,402.7,0.0500,-62.94,13.91
123,407.4,0.0500,-62.49,12.50
124,412.1,0.0500,-62.89,8.45
125,416.9,0.0500,-63.54,8.80
126,421.7,0.0500,-63.42,10.68
127,426.6,0.0500,-62.16,18.14
128,431.5,0.0500,-62.27,13.69
129,436.5,0.0500,-63.09,12.75
130,441.6,0.0500,-62.81,13.93
131,446.7,0.0500,-62.75,11.63
132,451.9,0.0500,-63.01,17.01
133,457.1,0.0500,-62.41,13.63
134,462.4,0.0500,-62.24,10.38
135,467.7,0.0500,-62.75,10.55
136,473.2,0.0500,-63.01,13.29
137,478.6,0.0500,-62.06,15.15
138,484.2,0.0500,-62.58,10.02
139,489.8,0.0500,-62.71,14.25
140,495.5,0.0500,-61.57,16.72
141,501.2,0.0500,-61.89,17.56
142,507.0,0.0500,-62.66,17.76
143,512.9,0.0500,-63.39,14.22
144,518.8,0.0500,-62.35,15.63
145,524.8,0.0500,-63.09,14.17
146,530.9,0.0500,-62.97,13.41
147,537.0,0.0500,-63.16,15.87
148,543.3,0.0500,-63.16,11.41
149,549.5,0.0500,-62.81,21.36
150,555.9,0.0500,-62.39,14.56
151,562.3,0.0500,-62.66,21.05
152,568.9,0.0500,-62.90,18.55
153,575.4,0.0500,-62.15,18.60
154,582.1,0.0500,-62.17,19.90
155,588.8,0.0500,-62.10,15.18
156,595.7,0.0500,-61.72,14.55
157,602.6,0.0500,-62.59,15.64
158,609.5,0.0500,-61.29,18.89
159,616.6,0.0500,-62.85,22.09
160,623.7,0.0500,-63.30,18.29
161,631.0,0.0500,-62.16,18.87
162,638.3,0.0500,-62.21,17.57
163,645.7,0.0500,-62.03,14.23
164,653.1,0.0500,-62.70,15.21
165,660.7,0.0500,-62.25,15.98
166,668.3,0.0500,-61.64,18.98
167,676.1,0.0500,-63.35,19.93
168,683.9,0.0500,-62.18,24.25
169,691.8,0.0500,-62.10,18.51
170,699.8,0.0500,-62.25,21.11
171,707.9,0.0500,-63.44,16.27
172,716.1,0.0500,-62.60,25.23
173,724.4,0.0500,-61.38,14.01
174,732.8,0.0500,-61.77,20.93
175,741.3,0.0500,-63.12,28.07
176,749.9,0.0500,-62.21,19.57
177,758.6,0.0500,-62.32,18.71
178,767.4,0.0500,-61.39,20.50
179,776.2,0.0500,-62.09,24.73
180,785.2,0.0500,-62.75,26.99
181,794.3,0.0500,-61.95,31.72
182,803.5,0.0500,-61.85,25.29
183,812.8,0.0500,-61.62,21.74
184,822.2,0.0500,-62.22,25.77
185,831.8,0.0500,-62.05,24.21
186,841.4,0.0500,-62.01,26.75
187,851.1,0.0500,-61.66,23.39
188,861.0,0.0500,-62.17,30.02
189,871.0,0.0500,-62.03,26.90
190,881.0,0.0500,-61.71,21.69
191,891.3,0.0500,-61.93,23.75
192,901.6,0.0500,-62.11,27.29
193,912.0,0.0500,-61.85,24.65
194,922.6,0.0500,-61.55,31.32
195,933.3,0.0500,-61.60,28.38
196,944.1,0.0500,-62.07,26.48
197,955.0,0.0500,-62.50,29.00
198,966.1,0.0500,-61.97,26.77
199,977.2,0.0500,-63.79,24.31
200,988.6,0.0500,-61.83,28.97
201,1000.0,0.0500,-61.72,20.30
202,1011.6,0.0500,-61.68,28.17
203,1023.3,0.0500,-61.97,27.83
204,1035.1,0.0500,-61.64,26.84
205,1047.1,0.0500,-60.78,28.63
206,1059.3,0.0500,-61.45,29.04
207,1071.5,0.0500,-62.48,28.76
208,1083.9,0.0500,-61.47,23.47
209,1096.5,0.0500,-61.11,26.32
210,1109.2,0.0500,-62.31,24.98
211,1122.0,0.0500,-60.96,29.67
212,1135.0,0.0500,-61.26,28.64
213,1148.2,0.0500,-60.97,30.21
214,1161.4,0.0500,-61.76,28.19
215,1174.9,0.0500,-61.28,33.40
216,1188.5,0.0500,-61.58,33.06
217,1202.3,0.0500,-60.57,35.53
218,1216.2,0.0500,-60.97,32.41
219,1230.3,0.0500,-61.18,33.04
220,1244.5,0.0500,-60.72,33.69
221,1258.9,0.0500,-60.71,28.90
222,1273.5,0.0500,-60.57,36.36
223,1288.2,0.0500,-61.44,29.43
224,1303.2,0.0500,-61.16,33.68
225,1318.3,0.0500,-60.75,32.01
226,1333.5,0.0500,-60.60,33.82
227,1349.0,0.0500,-59.70,39.78
228,1364.6,0.0500,-60.50,35.07
229,1380.4,0.0500,-60.00,35.50
230,1396.4,0.0500,-60.24,39.07
231,1412.5,0.0500,-60.83,36.94
232,1428.9,0.0500,-60.35,39.82
233,1445.4,0.0500,-61.20,36.30
234,1462.2,0.0500,-60.83,34.95
235,1479.1,0.0500,-60.97,36.64
236,1496.2,0.0500,-59.17,39.39
237,1513.6,0.0500,-59.35,50.51
238,1531.1,0.0500,-60.79,41.72
239,1548.8,0.0500,-60.91,28.57
240,1566.8,0.0500,-59.39,24.90
241,1584.9,0.0500,-60.25,46.35
242,1603.2,0.0500,-59.71,36.83
243,1621.8,0.0500,-59.67,46.60
244,1640.6,0.0500,-59.31,44.48
245,1659.6,0.0500,-60.13,45.83
246,1678.8,0.0500,-59.79,52.60
247,1698.2,0.0500,-58.62,38.76
248,1717.9,0.0500,-60.92,40.76
249,1737.8,0.0500,-59.37,49.53
250,1757.9,0.0500,-59.84,37.05
251,1778.3,0.0500,-59.50,39.57
252,1798.9,0.0500,-60.41,41.93
253,1819.7,0.0500,-60.26,44.40
254,1840.8,0.0500,-61.67,49.27
255,1862.1,0.0500,-59.34,40.97
256,1883.6,0.0500,-59.23,39.04
257,1905.5,0.0500,-59.73,43.08
258,1927.5,0.0500,-58.92,45.30
259,1949.8,0.0500,-59.88,45.32
260,1972.4,0.0500,-59.25,44.49
261,1995.3,0.0500,-58.84,48.44
262,2018.4,0.0500,-59.16,43.80
263,2041.7,0.0500,-59.52,47.30
264,2065.4,0.0500,-58.33,43.17
265,2089.3,0.0500,-59.02,45.44
266,2113.5,0.0500,-58.99,47.06
267,2138.0,0.0500,-58.63,48.14
268,2162.7,0.0500,-58.56,49.29
269,2187.8,0.0500,-58.74,46.27
270,2213.1,0.0500,-58.84,43.62
271,2238.7,0.0500,-58.83,48.64
272,2264.6,0.0500,-58.38,47.84
273,2290.9,0.0500,-57.92,48.62
274,2317.4,0.0500,-58.28,52.49
275,2344.2,0.0500,-58.37,43.29
276,2371.4,0.0500,-58.22,48.29
277,2398.8,0.0500,-58.83,51.44
278,2426.6,0.0500,-58.82,48.79
279,2454.7,0.0500,-59.16,48.95
280,2483.1,0.0500,-58.41,51.29
281,2511.9,0.0500,-58.34,47.43
282,2541.0,0.0500,-57.74,54.59
283,2570.4,0.0500,-58.18,53.07
284,2600.2,0.0500,-57.54,52.84
285,2630.3,0.0500,-57.64,47.24
286,2660.7,0.0500,-57.78,49.23
287,2691.5,0.0500,-57.77,52.49
288,2722.7,0.0500,-56.71,52.32
289,2754.2,0.0500,-57.40,51.60
290,2786.1,0.0500,-57.53,56.68
291,2818.4,0.0500,-57.48,50.43
292,2851.0,0.0500,-57.30,50.45
293,2884.0,0.0500,-57.14,54.03
294,2917.4,0.0500,-56.72,53.76
295,2951.2,0.0500,-57.02,54.83
296,2985.4,0.0500,-57.81,57.77
297,3020.0,0.0500,-56.63,53.27
298,3054.9,0.0500,-57.03,54.24
299,3090.3,0.0500,-56.63,54.78
300,3126.1,0.0500,-56.93,55.60
301,3162.3,0.0500,-56.37,55.92
302,3198.9,0.0500,-57.07,52.83
303,3235.9,0.0500,-56.67,54.09
304,3273.4,0.0500,-56.41,57.89
305,3311.3,0.0500,-56.25,54.90
306,3349.7,0.0500,-55.86,59.44
307,3388.4,0.0500,-55.85,56.67
308,3427.7,0.0500,-55.02,55.05
309,3467.4,0.0500,-56.26,57.34
310,3507.5,0.0500,-55.93,70.12
311,3548.1,0.0500,-56.58,55.94
312,3589.2,0.0500,-55.39,58.17
313,3630.8,0.0500,-55.90,63.71
314,3672.8,0.0500,-55.62,57.26
315,3715.4,0.0500,-56.27,59.94
316,3758.4,0.0500,-55.99,61.69
317,3801.9,0.0500,-54.40,64.66
318,3845.9,0.0500,-55.07,61.38
319,3890.5,0.0500,-55.00,59.05
320,3935.5,0.0500,-54.40,62.56
321,3981.1,0.0500,-54.95,63.48
322,4027.2,0.0500,-54.84,58.97
323,4073.8,0.0500,-55.12,60.44
324,4121.0,0.0500,-55.03,59.57
325,4168.7,0.0500,-54.68,62.21
326,4217.0,0.0500,-54.98,64.39
327,4265.8,0.0500,-54.54,65.06
328,4315.2,0.0500,-54.83,60.81
329,4365.2,0.0500,-54.57,62.41
330,4415.7,0.0500,-54.46,63.06
331,4466.8,0.0500,-54.33,63.35
332,4518.6,0.0500,-54.52,66.02
333,4570.9,0.0500,-54.05,63.35
334,4623.8,0.0500,-54.11,63.52
335,4677.4,0.0500,-54.26,62.79
336,4731.5,0.0500,-54.08,64.08
337,4786.3,0.0500,-53.96,66.82
338,4841.7,0.0500,-53.79,64.33
339,4897.8,0.0500,-53.80,64.61
340,4954.5,0.0500,-53.27,65.85
341,5011.9,0.0500,-53.42,65.91
342,5069.9,0.0500,-53.67,65.27
343,5128.6,0.0500,-53.32,65.43
344,5188.0,0.0500,-53.57,66.96
345,5248.1,0.0500,-53.33,65.96
346,5308.8,0.0500,-53.12,64.44
347,5370.3,0.0500,-53.13,66.65
348,5432.5,0.0500,-52.76,66.54
349,5495.4,0.0500,-53.16,64.89
350,5559.0,0.0500,-52.69,65.29
351,5623.4,0.0500,-53.01,65.76
352,5688.5,0.0500,-52.93,68.44
353,5754.4,0.0500,-52.77,68.13
354,5821.0,0.0500,-52.93,67.97
355,5888.4,0.0500,-52.27,68.12
356,5956.6,0.0500,-51.83,65.97
357,6025.6,0.0500,-52.72,68.38
358,6095.4,0.0500,-52.25,66.85
359,6166.0,0.0500,-52.13,66.02
360,6237.3,0.0500,-51.80,72.03
361,6309.6,0.0500,-52.08,67.45
362,6382.6,0.0500,-51.96,69.50
363,6456.5,0.0500,-51.58,69.81
364,6531.3,0.0500,-51.96,69.20
365,6606.9,0.0500,-51.56,68.12
366,6683.4,0.0500,-51.74,68.39
367,6760.8,0.0500,-51.39,69.68
368,6839.1,0.0500,-51.13,72.02
369,6918.3,0.0500,-51.13,66.84
370,6998.4,0.0500,-51.66,71.84
371,7079.5,0.0500,-51.39,71.07
372,7161.4,0.0500,-51.46,69.39
373,7244.4,0.0500,-51.17,70.66
374,7328.2,0.0500,-50.62,71.63
375,7413.1,0.0500,-50.46,73.07
376,7498.9,0.0500,-50.69,70.37
377,7585.8,0.0500,-50.30,73.57
378,7673.6,0.0500,-50.60,70.42
379,7762.5,0.0500,-50.71,72.27
380,7852.4,0.0500,-50.14,70.45
381,7943.3,0.0500,-49.78,73.16
382,8035.3,0.0500,-50.68,71.59
383,8128.3,0.0500,-49.98,71.95
384,8222.4,0.0500,-49.75,70.75
385,8317.6,0.0500,-50.22,73.10
386,8414.0,0.0500,-49.68,73.15
387,8511.4,0.0500,-49.53,72.66
388,8609.9,0.0500,-49.73,72.16
389,8709.6,0.0500,-49.62,71.94
390,8810.5,0.0500,-49.37,72.90
391,8912.5,0.0500,-49.35,73.04
392,9015.7,0.0500,-49.05,72.39
393,9120.1,0.0500,-49.18,73.09
394,9225.7,0.0500,-48.79,74.93
395,9332.5,0.0500,-48.76,73.45
396,9440.6,0.0500,-48.89,73.05
397,9549.9,0.0500,-48.66,72.94
398,9660.5,0.0500,-48.74,72.82
399,9772.4,0.0500,-48.59,73.51
400,9885.5,0.0500,-48.38,74.36
401,10000.0,0.0500,-48.45,75.48
402,10115.8,0.0500,-48.24,75.28
403,10232.9,0.0500,-48.29,74.23
404,10351.4,0.0500,-48.09,73.87
405,10471.3,0.0500,-48.18,74.23
406,10592.5,0.0500,-48.18,73.51
407,10715.2,0.0500,-48.05,74.93
408,10839.3,0.0500,-48.05,73.81
409,10964.8,0.0500,-47.57,75.20
410,11091.7,0.0500,-47.68,75.07
411,11220.2,0.0500,-47.55,74.10
412,11350.1,0.0500,-47.42,74.75
413,11481.5,0.0500,-47.63,74.00
414,11614.5,0.0500,-47.09,74.98
415,11749.0,0.0500,-47.15,75.28
416,11885.0,0.0500,-47.23,75.83
417,12022.6,0.0500,-47.36,75.46
418,12161.9,0.0500,-46.70,73.54
419,12302.7,0.0500,-46.76,75.18
420,12445.1,0.0500,-46.68,75.67
421,12589.3,0.0500,-46.68,76.23
422,12735.0,0.0500,-46.28,76.76
423,12882.5,0.0500,-46.34,75.98
424,13031.7,0.0500,-46.27,76.83
425,13182.6,0.0500,-46.19,75.74
426,13335.2,0.0500,-46.13,74.50
427,13489.6,0.0500,-46.05,76.22
428,13645.8,0.0500,-45.90,77.52
429,13803.8,0.0500,-45.62,76.74
430,13963.7,0.0500,-46.00,75.45
431,14125.4,0.0500,-45.67,76.94
432,14288.9,0.0500,-45.55,76.53
433,14454.4,0.0500,-45.28,77.00
434,14621.8,0.0500,-45.36,77.12
435,14791.1,0.0500,-45.28,76.03
436,14962.4,0.0500,-45.12,77.50
437,15135.6,0.0500,-45.24,76.99
438,15310.9,0.0500,-45.12,76.66
439,15488.2,0.0500,-45.15,76.38
440,15667.5,0.0500,-44.80,77.75
441,15848.9,0.0500,-44.64,76.53
442,16032.5,0.0500,-44.78,77.74
443,16218.1,0.0500,-44.54,77.63
444,16405.9,0.0500,-44.50,77.29
445,16595.9,0.0500,-44.45,77.99
446,16788.0,0.0500,-44.24,77.53
447,16982.4,0.0500,-44.13,77.15
448,17179.1,0.0500,-44.11,77.51
449,17378.0,0.0500,-43.96,78.08
450,17579.2,0.0500,-43.89,78.71
451,17782.8,0.0500,-43.80,78.62
452,17988.7,0.0500,-43.69,78.14
453,18197.0,0.0500,-43.68,77.71
454,18407.7,0.0500,-43.53,78.09
455,18620.9,0.0500,-43.39,77.49
456,18836.5,0.0500,-43.39,77.81
457,19054.6,0.0500,-43.15,77.85
458,19275.2,0.0500,-43.16,78.26
459,19498.4,0.0500,-43.03,78.72
460,19724.2,0.0500,-42.99,78.60
461,19952.6,0.0500,-42.93,77.64
462,20183.7,0.0500,-42.69,78.10
463,20417.4,0.0500,-42.72,78.07
464,20653.8,0.0500,-42.68,78.27
465,20893.0,0.0500,-42.56,78.67
466,21134.9,0.0500,-42.44,78.42
467,21379.6,0.0500,-42.29,78.88
468,21627.2,0.0500,-42.24,78.88
469,21877.6,0.0500,-42.17,78.70
470,22130.9,0.0500,-41.98,79.03
471,22387.2,0.0500,-41.92,78.67
472,22646.4,0.0500,-41.91,78.74
473,22908.7,0.0500,-41.71,78.85
474,23173.9,0.0500,-41.72,78.22
475,23442.3,0.0500,-41.65,78.75
476,23713.7,0.0500,-41.44,78.15
477,23988.3,0.0500,-41.42,79.16
478,24266.1,0.0500,-41.37,78.96
479,24547.1,0.0500,-41.21,79.13
480,24831.3,0.0500,-41.15,79.16
481,25118.9,0.0500,-40.95,79.89
482,25409.7,0.0500,-40.97,79.52
483,25704.0,0.0500,-40.68,79.10
484,26001.6,0.0500,-40.64,79.30
485,26302.7,0.0500,-40.67,79.27
486,26607.3,0.0500,-40.50,79.11
487,26915.3,0.0500,-40.51,79.01
488,27227.0,0.0500,-40.36,78.79
489,27542.3,0.0500,-40.45,79.61
490,27861.2,0.0500,-40.11,79.16
491,28183.8,0.0500,-40.14,79.52
492,28510.2,0.0500,-39.90,79.60
493,28840.3,0.0500,-39.81,80.00
494,29174.3,0.0500,-39.81,79.77
495,29512.1,0.0500,-39.70,79.58
496,29853.8,0.0500,-39.55,79.63
497,30199.5,0.0500,-39.46,79.89
498,30549.2,0.0500,-39.46,79.89
499,30903.0,0.0500,-39.30,79.80
500,31260.8,0.0500,-39.18,79.61
501,31622.8,0.0500,-39.19,79.03
502,31989.0,0.0500,-39.18,79.64
503,32359.4,0.0500,-38.90,79.67
504,32734.1,0.0500,-38.79,80.05
505,33113.1,0.0500,-38.80,79.72
506,33496.5,0.0500,-38.56,80.39
507,33884.4,0.0500,-38.61,79.93
508,34276.8,0.0500,-38.45,80.12
509,34673.7,0.0500,-38.40,79.45
510,35075.2,0.0500,-38.29,79.78
511,35481.3,0.0500,-38.15,80.56
512,35892.2,0.0500,-38.10,79.69
513,36307.8,0.0500,-37.98,79.81
514,36728.2,0.0500,-37.89,79.89
515,37153.5,0.0500,-37.80,80.05
516,37583.7,0.0500,-37.68,80.30
517,38018.9,0.0500,-37.57,80.10
518,38459.2,0.0500,-37.58,80.03
519,38904.5,0.0500,-37.45,79.84
520,39355.0,0.0500,-37.32,79.77
521,39810.7,0.0500,-37.19,80.19
522,40271.7,0.0500,-37.13,80.20
523,40738.0,0.0500,-37.01,80.22
524,41209.8,0.0500,-37.02,80.22
525,41686.9,0.0500,-36.94,79.72
526,42169.7,0.0500,-36.77,80.16
527,42658.0,0.0500,-36.62,79.88
528,43151.9,0.0500,-36.61,79.72
529,43651.6,0.0500,-36.42,80.31
530,44157.0,0.0500,-36.38,79.90
531,44668.4,0.0500,-36.28,80.01
532,45185.6,0.0500,-36.19,80.38
533,45708.8,0.0500,-36.08,79.78
534,46238.1,0.0500,-35.98,80.11
535,46773.5,0.0500,-35.94,80.21
536,47315.1,0.0500,-35.74,79.80
537,47863.0,0.0500,-35.80,80.35
538,48417.2,0.0500,-35.62,80.96
539,48977.9,0.0500,-35.51,79.94
540,49545.0,0.0500,-35.39,80.81
541,50118.7,0.0500,-35.30,80.24
542,50699.1,0.0500,-35.15,80.75
543,51286.1,0.0500,-35.08,80.28
544,51880.0,0.0500,-34.95,80.59
545,52480.7,0.0500,-34.89,80.14
546,53088.4,0.0500,-34.81,80.18
547,53703.2,0.0500,-34.75,80.05
548,54325.0,0.0500,-34.57,80.34
549,54954.1,0.0500,-34.55,79.87
550,55590.4,0.0500,-34.41,80.75
551,56234.1,0.0500,-34.29,79.87
552,56885.3,0.0500,-34.25,80.09
553,57544.0,0.0500,-34.17,79.51
554,58210.3,0.0500,-34.00,79.93
555,58884.4,0.0500,-33.96,79.24
556,59566.2,0.0500,-33.90,79.96
557,60256.0,0.0500,-33.88,79.82
558,60953.7,0.0500,-33.76,79.80
559,61659.5,0.0500,-33.60,80.00
560,62373.5,0.0500,-33.57,80.06
561,63095.7,0.0500,-33.38,80.00
562,63826.3,0.0500,-33.23,79.73
563,64565.4,0.0500,-33.22,79.90
564,65313.1,0.0500,-33.11,79.58
565,66069.3,0.0500,-33.10,79.78
566,66834.4,0.0500,-32.93,80.02
567,67608.3,0.0500,-32.88,79.90
568,68391.2,0.0500,-32.70,79.74
569,69183.1,0.0500,-32.64,79.05
570,69984.2,0.0500,-32.62,79.76
571,70794.6,0.0500,-32.36,80.12
572,71614.3,0.0500,-32.27,80.14
573,72443.6,0.0500,-32.21,80.05
574,73282.5,0.0500,-32.14,79.82
575,74131.0,0.0500,-32.06,79.59
576,74989.4,0.0500,-31.92,79.77
577,75857.8,0.0500,-31.86,79.68
578,76736.1,0.0500,-31.73,79.80
579,77624.7,0.0500,-31.63,79.57
580,78523.6,0.0500,-31.49,80.13
581,79432.8,0.0500,-31.41,79.80
582,80352.6,0.0500,-31.33,79.80
583,81283.1,0.0500,-31.28,79.92
584,82224.3,0.0500,-31.14,79.79
585,83176.4,0.0500,-31.04,79.71
586,84139.5,0.0500,-30.92,79.62
587,85113.8,0.0500,-30.88,79.50
588,86099.4,0.0500,-30.76,79.52
589,87096.4,0.0500,-30.61,79.64
590,88104.9,0.0500,-30.53,79.69
591,89125.1,0.0500,-30.41,79.56
592,90157.1,0.0500,-30.36,79.73
593,91201.1,0.0500,-30.22,79.71
594,92257.1,0.0500,-30.10,79.48
595,93325.4,0.0500,-30.05,79.69
596,94406.1,0.0500,-29.92,79.48
597,95499.3,0.0500,-29.78,79.43
598,96605.1,0.0500,-29.71,79.58
599,97723.7,0.0500,-29.55,79.19
600,98855.3,0.0500,-29.59,79.40
601,100000.0,0.0500,-29.42,79.34
602,101157.9,0.0500,-29.26,79.25
603,102329.3,0.0500,-29.17,79.02
604,103514.2,0.0500,-29.07,79.19
605,104712.9,0.0500,-28.94,78.96
606,105925.4,0.0500,-28.84,79.13
607,107151.9,0.0500,-28.77,79.31
608,108392.7,0.0500,-28.63,79.06
609,109647.8,0.0500,-28.54,79.06
610,110917.5,0.0500,-28.42,79.10
611,112201.8,0.0500,-28.33,79.10
612,113501.1,0.0500,-28.24,78.87
613,114815.4,0.0500,-28.11,78.97
614,116144.9,0.0500,-27.99,78.84
615,117489.8,0.0500,-27.91,78.81
616,118850.2,0.0500,-27.78,78.08
617,120226.4,0.0500,-27.65,78.89
618,121618.6,0.0500,-27.59,78.51
619,123026.9,0.0500,-27.48,78.60
620,124451.5,0.0500,-27.40,78.30
621,125892.5,0.0500,-27.25,78.50
622,127350.3,0.0500,-27.09,78.28
623,128825.0,0.0500,-26.95,78.24
624,130316.7,0.0500,-27.02,78.60
625,131825.7,0.0500,-26.82,78.45
626,133352.1,0.0500,-26.62,77.92
627,134896.3,0.0500,-26.62,78.36
628,136458.3,0.0500,-26.52,78.56
629,138038.4,0.0500,-26.25,77.97
630,139636.8,0.0500,-26.28,77.94
631,141253.8,0.0500,-26.09,77.49
632,142889.4,0.0500,-25.99,78.13
633,144544.0,0.0500,-25.76,77.91
634,146217.7,0.0500,-25.83,77.45
635,147910.8,0.0500,-25.71,77.60
636,149623.6,0.0500,-25.51,77.40
637,151356.1,0.0500,-25.33,77.56
638,153108.7,0.0500,-25.40,77.10
639,154881.7,0.0500,-25.03,77.80
640,156675.1,0.0500,-25.06,78.05
641,158489.3,0.0500,-24.79,76.29
642,160324.5,0.0500,-24.86,75.05
643,162181.0,0.0500,-24.52,76.62
644,164059.0,0.0500,-24.52,76.70
645,165958.7,0.0500,-24.44,77.41
646,167880.4,0.0500,-24.23,77.05
647,169824.4,0.0500,-24.10,76.24
648,171790.8,0.0500,-24.23,77.18
649,173780.1,0.0500,-23.80,77.21
650,175792.4,0.0500,-23.77,76.99
651,177827.9,0.0500,-23.68,76.24
652,179887.1,0.0500,-23.57,75.84
653,181970.1,0.0500,-23.28,77.41
654,184077.2,0.0500,-23.31,76.67
655,186208.7,0.0500,-23.12,75.26
656,188364.9,0.0500,-22.93,75.22
657,190546.1,0.0500,-23.03,76.52
658,192752.5,0.0500,-22.52,76.12
659,194984.5,0.0500,-22.56,75.04
660,197242.3,0.0500,-22.54,76.01
661,199526.2,0.0500,-22.27,74.79
662,201836.6,0.0500,-22.18,74.65
663,204173.8,0.0500,-22.25,74.58
664,206538.0,0.0500,-21.82,75.12
665,208929.6,0.0500,-21.78,75.46
666,211348.9,0.0500,-21.55,73.66
667,213796.2,0.0500,-21.37,73.56
668,216271.9,0.0500,-21.24,73.68
669,218776.2,0.0500,-21.11,71.96
670,221309.5,0.0500,-20.86,72.87
671,223872.1,0.0500,-20.72,72.82
672,226464.4,0.0500,-20.44,72.70
673,229086.8,0.0500,-20.45,72.47
674,231739.5,0.0500,-20.32,72.16
675,234422.9,0.0500,-20.48,71.49
676,237137.4,0.0500,-19.98,72.75
677,239883.3,0.0500,-19.86,72.39
678,242661.0,0.0500,-19.36,71.65
679,245470.9,0.0500,-19.47,71.58
680,248313.3,0.0500,-19.29,70.59
681,251188.6,0.0500,-19.14,70.31
682,254097.3,0.0500,-18.95,70.02
683,257039.6,0.0500,-18.80,67.55
684,260016.0,0.0500,-18.57,69.51
685,263026.8,0.0500,-18.12,68.84
686,266072.5,0.0500,-18.22,68.58
687,269153.5,0.0500,-17.98,68.32
688,272270.1,0.0500,-17.86,68.32
689,275422.9,0.0500,-17.68,66.19
690,278612.1,0.0500,-17.67,68.11
691,281838.3,0.0500,-17.18,66.98
692,285101.8,0.0500,-16.90,64.94
693,288403.2,0.0500,-16.73,65.98
694,291742.7,0.0500,-16.57,65.49
695,295120.9,0.0500,-16.36,64.96
696,298538.3,0.0500,-16.09,65.11
697,301995.2,0.0500,-15.96,64.13
698,305492.1,0.0500,-15.78,63.19
699,309029.5,0.0500,-15.39,63.62
700,312607.9,0.0500,-15.21,62.00
701,316227.8,0.0500,-15.10,61.97
702,319889.5,0.0500,-14.54,60.17
703,323593.7,0.0500,-14.39,59.41
704,327340.7,0.0500,-14.30,58.73
705,331131.1,0.0500,-13.89,55.74
706,334965.4,0.0500,-13.65,56.95
707,338844.2,0.0500,-13.40,56.00
708,342767.8,0.0500,-13.04,53.63
709,346736.9,0.0500,-12.85,53.88
710,350751.9,0.0500,-12.53,52.58
711,354813.4,0.0500,-12.25,51.22
712,358921.9,0.0500,-12.06,49.50
713,363078.1,0.0500,-11.56,48.06
714,367282.3,0.0500,-11.36,46.58
715,371535.2,0.0500,-10.93,45.09
716,375837.4,0.0500,-10.74,44.67
717,380189.4,0.0500,-10.36,41.33
718,384591.8,0.0500,-10.22,38.84
719,389045.1,0.0500,-9.69,36.78
720,393550.1,0.0500,-9.11,34.32
721,398107.2,0.0500,-9.22,31.48
722,402717.0,0.0500,-8.73,28.86
723,407380.3,0.0500,-8.41,25.68
724,412097.5,0.0500,-8.12,22.87
725,416869.4,0.0500,-7.90,18.98
726,421696.5,0.0500,-7.71,15.36
727,426579.5,0.0500,-7.44,11.40
728,431519.1,0.0500,-7.30,7.37
729,436515.8,0.0500,-7.17,3.04
730,441570.4,0.0500,-6.98,-2.05
731,446683.6,0.0500,-7.07,-5.80
732,451855.9,0.0500,-7.09,-9.88
733,457088.2,0.0500,-7.07,-13.81
734,462381.0,0.0500,-7.29,-18.79
735,467735.1,0.0500,-7.47,-22.70
736,473151.3,0.0500,-7.63,-26.72
737,478630.1,0.0500,-7.96,-29.42
738,484172.4,0.0500,-8.18,-34.12
739,489778.8,0.0500,-8.92,-36.14
740,495450.2,0.0500,-8.86,-41.26
741,501187.2,0.0500,-9.12,-43.38
742,506990.7,0.0500,-9.49,-46.81
743,512861.4,0.0500,-9.72,-48.92
744,518800.0,0.0500,-10.14,-51.39
745,524807.5,0.0500,-10.51,-53.56
746,530884.4,0.0500,-10.81,-54.28
747,537031.8,0.0500,-11.25,-57.22
748,543250.3,0.0500,-11.60,-59.18
749,549540.9,0.0500,-11.68,-60.39
750,555904.3,0.0500,-12.31,-62.90
751,562341.3,0.0500,-12.60,-63.72
752,568852.9,0.0500,-12.92,-65.33
753,575439.9,0.0500,-13.22,-66.85
754,582103.2,0.0500,-13.54,-67.45
755,588843.7,0.0500,-13.81,-67.87
756,595662.1,0.0500,-14.21,-65.10
757,602559.6,0.0500,-14.51,-70.44
758,609536.9,0.0500,-14.45,-69.20
759,616595.0,0.0500,-15.06,-71.93
760,623734.8,0.0500,-15.37,-80.13
761,630957.3,0.0500,-15.63,-72.91
762,638263.5,0.0500,-16.75,-71.73
763,645654.2,0.0500,-16.14,-75.58
764,653130.6,0.0500,-16.51,-75.96
765,660693.4,0.0500,-16.96,-76.35
766,668343.9,0.0500,-16.56,-80.73
767,676083.0,0.0500,-17.17,-74.01
768,683911.6,0.0500,-17.61,-78.23
769,691831.0,0.0500,-17.84,-77.95
770,699842.0,0.0500,-17.83,-73.20
771,707945.8,0.0500,-18.33,-80.07
772,716143.4,0.0500,-18.70,-78.41
773,724436.0,0.0500,-17.97,-79.26
774,732824.5,0.0500,-19.08,-80.50
775,741310.2,0.0500,-19.36,-80.29
776,749894.2,0.0500,-19.91,-79.96
777,758577.6,0.0500,-19.92,-81.18
778,767361.5,0.0500,-19.27,-81.61
779,776247.1,0.0500,-20.56,-79.37
780,785235.6,0.0500,-20.90,-84.13
781,794328.2,0.0500,-21.23,-80.30
782,803526.1,0.0500,-21.29,-81.74
783,812830.5,0.0500,-21.44,-77.99
784,822242.6,0.0500,-21.82,-79.08
785,831763.8,0.0500,-22.18,-82.52
786,841395.1,0.0500,-22.28,-75.69
787,851138.0,0.0500,-22.76,-76.71
788,860993.8,0.0500,-22.94,-73.45
789,870963.6,0.0500,-20.85,-90.88
790,881048.9,0.0500,-23.92,-70.07
791,891250.9,0.0500,-24.67,-66.02
792,901571.1,0.0500,-24.01,-68.64
793,912010.8,0.0500,-23.65,-66.28
794,922571.4,0.0500,-23.53,-60.77
795,933254.3,0.0500,-23.15,-60.16
796,944060.9,0.0500,-22.22,-55.22
797,954992.6,0.0500,-22.16,-54.36
798,966050.9,0.0500,-22.34,-57.83
799,977237.2,0.0500,-21.35,-59.88
800,988553.1,0.0500,-21.34,-62.32
801,1000000.0,0.0500,-20.66,-62.20
802,1011579.5,0.0500,-20.96,-64.11
803,1023293.0,0.0500,-20.51,-68.79
804,1035142.2,0.0500,-21.36,-75.47
805,1047128.5,0.0500,-20.83,-73.28
806,1059253.7,0.0500,-23.02,-66.25
807,1071519.3,0.0500,-21.37,-76.53
808,1083926.9,0.0500,-21.40,-78.86
809,1096478.2,0.0500,-21.58,-76.13
810,1109174.8,0.0500,-21.64,-82.36
811,1122018.5,0.0500,-21.62,-91.42
812,1135010.8,0.0500,-22.15,-84.43
813,1148153.6,0.0500,-22.19,-82.63
814,1161448.6,0.0500,-22.67,-85.15
815,1174897.6,0.0500,-22.66,-90.94
816,1188502.2,0.0500,-23.01,-82.02
817,1202264.4,0.0500,-23.78,-88.58
818,1216186.0,0.0500,-24.60,-97.92
819,1230268.8,0.0500,-22.37,-86.60
820,1244514.6,0.0500,-23.75,-92.01
821,1258925.4,0.0500,-23.93,-91.93
822,1273503.1,0.0500,-24.41,-91.31
823,1288249.6,0.0500,-24.09,-91.29
824,1303166.8,0.0500,-23.95,-88.10
825,1318256.7,0.0500,-22.92,-96.90
826,1333521.4,0.0500,-23.82,-88.66
827,1348962.9,0.0500,-25.73,-82.23
828,1364583.1,0.0500,-24.59,-93.97
829,1380384.3,0.0500,-25.07,-91.84
830,1396368.4,0.0500,-24.62,-93.97
831,1412537.5,0.0500,-24.75,-95.55
832,1428894.0,0.0500,-26.22,-103.25
833,1445439.8,0.0500,-24.28,-99.41
834,1462177.2,0.0500,-25.23,-90.89
835,1479108.4,0.0500,-25.88,-100.53
836,1496235.7,0.0500,-25.16,-100.54
837,1513561.2,0.0500,-24.93,-94.08
838,1531087.5,0.0500,-26.50,-103.65
839,1548816.6,0.0500,-25.78,-107.58
840,1566751.1,0.0500,-28.79,-116.06
841,1584893.2,0.0500,-26.67,-98.51
842,1603245.4,0.0500,-27.65,-105.31
843,1621810.1,0.0500,-26.44,-101.81
844,1640589.8,0.0500,-26.63,-109.40
845,1659586.9,0.0500,-27.83,-102.72
846,1678804.0,0.0500,-28.50,-107.95
847,1698243.7,0.0500,-35.94,-38.03
848,1717908.4,0.0500,-30.56,-104.64
849,1737800.8,0.0500,-30.02,-114.97
850,1757923.6,0.0500,-27.44,-90.70
851,1778279.4,0.0500,-28.55,-112.52
852,1798870.9,0.0500,-28.97,-106.61
853,1819700.9,0.0500,-29.74,-106.07
854,1840772.0,0.0500,-29.42,-85.66
855,1862087.1,0.0500,-31.81,-96.46
856,1883649.1,0.0500,-34.57,-115.41
857,1905460.7,0.0500,-30.30,-123.84
858,1927524.9,0.0500,-33.76,-112.46
859,1949844.6,0.0500,-33.86,-88.68
860,1972422.7,0.0500,-33.61,-93.34
861,1995262.3,0.0500,-41.43,-158.94
862,2018366.4,0.0500,-24.26,24.53
863,2041737.9,0.0500,-33.94,-8.07
864,2065380.2,0.0500,-33.94,-70.97
865,2089296.1,0.0500,-30.87,-24.06
866,2113489.0,0.0500,-29.34,-58.69
867,2137962.1,0.0500,-33.93,-55.10
868,2162718.5,0.0500,-26.37,-101.59
869,2187761.6,0.0500,-28.34,-80.21
870,2213094.7,0.0500,-30.47,-86.84
871,2238721.1,0.0500,-29.33,-80.26
872,2264644.3,0.0500,-30.34,-80.59
873,2290867.7,0.0500,-30.46,-72.36
874,2317394.6,0.0500,-28.54,-87.87
875,2344228.8,0.0500,-29.37,-84.91
876,2371373.7,0.0500,-31.22,-86.50
877,2398832.9,0.0500,-30.10,-97.13
878,2426610.1,0.0500,-29.15,-112.88
879,2454708.9,0.0500,-30.82,-93.30
880,2483133.1,0.0500,-30.49,-99.52
881,2511886.4,0.0500,-31.60,-87.75
882,2540972.7,0.0500,-35.34,-87.63
883,2570395.8,0.0500,-30.72,101.25
884,2600159.6,0.0500,-32.94,-107.28
885,2630268.0,0.0500,-31.69,-103.57
886,2660725.1,0.0500,-35.10,-102.32
887,2691534.8,0.0500,-34.30,-108.16
888,2722701.3,0.0500,-34.10,-105.03
889,2754228.7,0.0500,-34.83,-119.34
890,2786121.2,0.0500,-33.90,-99.64
891,2818382.9,0.0500,-40.27,-127.49
892,2851018.3,0.0500,-34.89,-105.00
893,2884031.5,0.0500,-39.72,-100.10
894,2917427.0,0.0500,-42.66,-98.94
895,2951209.2,0.0500,-33.07,-90.42
896,2985382.6,0.0500,-37.22,-31.15
897,3019951.7,0.0500,-36.61,-96.05
898,3054921.1,0.0500,-36.88,-97.80
899,3090295.4,0.0500,-35.79,-67.19
900,3126079.4,0.0500,-41.36,-70.89
901,3162277.7,0.0500,-39.61,-70.71
902,3198895.1,0.0500,-33.53,-94.38
903,3235936.6,0.0500,-34.60,-81.48
904,3273406.9,0.0500,-33.00,-95.76
905,3311311.2,0.0500,-32.97,169.19
906,3349654.4,0.0500,-34.46,-102.03
907,3388441.6,0.0500,-33.55,-83.98
908,3427677.9,0.0500,-36.20,-89.68
909,3467368.5,0.0500,-31.68,-95.98
910,3507518.7,0.0500,-37.08,-87.37
911,3548133.9,0.0500,-34.02,-109.63
912,3589219.3,0.0500,-40.24,-103.22
913,3630780.5,0.0500,-33.88,-96.35
914,3672823.0,0.0500,-37.84,-114.37
915,3715352.3,0.0500,-32.80,-98.37
916,3758374.0,0.0500,-34.77,-89.31
917,3801894.0,0.0500,-32.80,-81.54
918,3845917.8,0.0500,-39.29,189.99
919,3890451.4,0.0500,-38.61,-111.63
920,3935500.8,0.0500,-39.93,-109.14
921,3981071.7,0.0500,-27.05,-116.13
922,4027170.3,0.0500,-33.81,-89.66
923,4073802.8,0.0500,-35.01,-88.80
924,4120975.2,0.0500,-33.75,-73.80
925,4168693.8,0.0500,-35.11,-103.88
926,4216965.0,0.0500,-34.00,-99.71
927,4265795.2,0.0500,-34.79,-104.83
928,4315190.8,0.0500,-41.16,-119.73
929,4365158.3,0.0500,-34.95,-116.56
930,4415704.5,0.0500,-38.25,-94.55
931,4466835.9,0.0500,-36.12,-88.46
932,4518559.4,0.0500,-26.60,-103.67
933,4570881.9,0.0500,-37.64,-120.31
934,4623810.2,0.0500,-37.07,-114.00
935,4677351.4,0.0500,-40.76,-95.72
936,4731512.6,0.0500,-36.54,-82.73
937,4786300.9,0.0500,-35.98,-94.00
938,4841723.7,0.0500,-37.73,-111.84
939,4897788.2,0.0500,-33.49,-97.05
940,4954501.9,0.0500,-39.88,-101.50
941,5011872.3,0.0500,-37.33,-110.39
942,5069907.1,0.0500,-41.60,-102.09
943,5128613.8,0.0500,-38.33,-103.21
944,5188000.4,0.0500,-35.74,-89.22
945,5248074.6,0.0500,-38.68,-122.11
946,5308844.4,0.0500,-37.20,-125.93
947,5370318.0,0.0500,-36.57,-106.45
948,5432503.3,0.0500,-38.89,-98.22
949,5495408.7,0.0500,-36.45,-130.24
950,5559042.6,0.0500,-39.12,-112.31
951,5623413.3,0.0500,-37.84,-100.09
952,5688529.3,0.0500,-37.97,-108.21
953,5754399.4,0.0500,-34.31,72.09
954,5821032.2,0.0500,-40.11,-129.45
955,5888436.6,0.0500,-35.19,-105.45
956,5956621.4,0.0500,-40.69,-117.19
957,6025595.9,0.0500,-39.51,-129.61
958,6095369.0,0.0500,-35.52,-114.81
959,6165950.0,0.0500,-36.60,-118.71
960,6237348.4,0.0500,-40.21,-112.22
961,6309573.4,0.0500,-44.17,-135.03
962,6382634.9,0.0500,-38.95,-109.71
963,6456542.3,0.0500,-38.06,-107.60
964,6531305.5,0.0500,-48.29,-112.60
965,6606934.5,0.0500,-42.31,-100.15
966,6683439.2,0.0500,-38.80,-141.01
967,6760829.8,0.0500,-39.06,-150.39
968,6839116.5,0.0500,-38.85,-108.58
969,6918309.7,0.0500,-45.56,-145.65
970,6998420.0,0.0500,-37.79,-157.50
971,7079457.8,0.0500,-44.72,-125.72
972,7161434.1,0.0500,-36.25,-18.17
973,7244359.6,0.0500,-48.92,-141.20
974,7328245.3,0.0500,-42.53,-132.00
975,7413102.4,0.0500,-40.95,-115.55
976,7498942.1,0.0500,-42.52,-127.20
977,7585775.8,0.0500,-42.58,-153.34
978,7673614.9,0.0500,-38.86,-127.23
979,7762471.2,0.0500,-42.61,-110.33
980,7852356.3,0.0500,-39.60,-114.18
981,7943282.3,0.0500,-40.37,-150.46
982,8035261.2,0.0500,-41.01,-106.87
983,8128305.2,0.0500,-39.29,-156.89
984,8222426.5,0.0500,-40.43,-135.26
985,8317637.7,0.0500,-43.51,-116.81
986,8413951.4,0.0500,-41.46,188.19
987,8511380.4,0.0500,-37.58,-140.99
988,8609937.5,0.0500,-40.99,-138.36
989,8709635.9,0.0500,-39.61,-147.87
990,8810488.7,0.0500,-42.80,-141.85
991,8912509.4,0.0500,-38.96,-161.84
992,9015711.4,0.0500,-44.49,-127.22
993,9120108.4,0.0500,-42.81,-148.15
994,9225714.3,0.0500,-48.92,-161.67
995,9332543.0,0.0500,-43.29,-102.41
996,9440608.8,0.0500,-44.52,-155.04
997,9549925.9,0.0500,-44.07,-130.15
998,9660508.8,0.0500,-46.62,-147.88
999,9772372.2,0.0500,-44.03,-133.63
1000,9885530.9,0.0500,-44.37,-127.08
1001,10000000.0,0.0500,-44.83,-139.35
