#, Frequency (Hz), Amplitude (Vpp), Gain (dB), Phase (°)
1,100.0,0.0500,-59.55,5.20
2,101.2,0.0500,-60.34,8.33
3,102.3,0.0500,-60.79,4.46
4,103.5,0.0500,-61.40,0.54
5,104.7,0.0500,-61.39,2.52
6,105.9,0.0500,-61.50,7.17
7,107.2,0.0500,-61.03,4.15
8,108.4,0.0500,-61.55,4.51
9,109.6,0.0500,-61.20,3.84
10,110.9,0.0500,-61.88,-0.42
11,112.2,0.0500,-60.21,0.78
12,113.5,0.0500,-60.88,8.02
13,114.8,0.0500,-61.16,3.32
14,116.1,0.0500,-60.70,-0.89
15,117.5,0.0500,-60.67,5.07
16,118.9,0.0500,-61.12,5.93
17,120.2,0.0500,-60.56,4.07
18,121.6,0.0500,-61.28,0.63
19,123.0,0.0500,-61.21,0.75
20,124.5,0.0500,-60.00,3.05
21,125.9,0.0500,-60.13,3.76
22,127.4,0.0500,-60.62,1.39
23,128.8,0.0500,-60.66,3.16
24,130.3,0.0500,-61.29,0.00
25,131.8,0.0500,-61.09,7.32
26,133.4,0.0500,-60.80,1.65
27,134.9,0.0500,-61.02,4.40
28,136.5,0.0500,-60.70,1.86
29,138.0,0.0500,-60.56,2.47
30,139.6,0.0500,-59.93,2.69
31,141.3,0.0500,-60.92,-0.54
32,142.9,0.0500,-60.81,8.98
33,144.5,0.0500,-59.72,9.14
34,146.2,0.0500,-60.95,2.30
35,147.9,0.0500,-60.92,-2.99
36,149.6,0.0500,-60.41,1.80
37,151.4,0.0500,-61.15,5.57
38,153.1,0.0500,-60.57,5.44
39,154.9,0.0500,-61.08,-0.88
40,156.7,0.0500,-60.84,8.18
41,158.5,0.0500,-60.72,1.19
42,160.3,0.0500,-60.35,4.23
43,162.2,0.0500,-61.84,7.12
44,164.1,0.0500,-60.83,1.99
45,166.0,0.0500,-60.93,0.69
46,167.9,0.0500,-60.65,3.84
47,169.8,0.0500,-60.31,9.36
48,171.8,0.0500,-60.45,0.29
49,173.8,0.0500,-60.84,9.42
50,175.8,0.0500,-60.46,1.92
51,177.8,0.0500,-60.68,4.13
52,179.9,0.0500,-61.12,7.83
53,182.0,0.0500,-60.78,5.18
54,184.1,0.0500,-60.31,2.44
55,186.2,0.0500,-60.50,8.27
56,188.4,0.0500,-60.46,6.36
57,190.5,0.0500,-60.33,4.87
58,192.8,0.0500,-60.19,6.36
59,195.0,0.0500,-60.49,2.42
60,197.2,0.0500,-60.44,7.01
61,199.5,0.0500,-59.81,4.49
62,201.8,0.0500,-60.61,0.83
63,204.2,0.0500,-61.26,5.44
64,206.5,0.0500,-60.38,5.66
65,208.9,0.0500,-60.82,9.05
66,211.3,0.0500,-60.21,5.70
67,213.8,0.0500,-60.43,8.66
68,216.3,0.0500,-60.24,6.63
69,218.8,0.0500,-60.24,6.02
70,221.3,0.0500,-60.49,5.73
71,223.9,0.0500,-60.74,5.00
72,226.5,0.0500,-60.23,1.55
73,229.1,0.0500,-60.43,6.34
74,231.7,0.0500,-60.76,6.20
75,234.4,0.0500,-60.67,3.85
76,237.1,0.0500,-60.89,11.00
77,239.9,0.0500,-60.39,8.43
78,242.7,0.0500,-60.09,7.16
79,245.5,0.0500,-60.45,5.16
80,248.3,0.0500,-60.22,8.27
81,251.2,0.0500,-59.74,4.62
82,254.1,0.0500,-60.63,7.82
83,257.0,0.0500,-60.50,10.24
84,260.0,0.0500,-60.28,3.91
85,263.0,0.0500,-60.94,4.82
86,266.1,0.0500,-60.43,6.41
87,269.2,0.0500,-60.50,5.94
88,272.3,0.0500,-60.37,6.86
89,275.4,0.0500,-60.65,8.50
90,278.6,0.0500,-59.53,7.29
91,281.8,0.0500,-60.64,7.16
92,285.1,0.0500,-60.72,4.83
93,288.4,0.0500,-60.61,6.20
94,291.7,0.0500,-60.12,5.86
95,295.1,0.0500,-60.00,9.14
96,298.5,0.0500,-61.11,9.25
97,302.0,0.0500,-60.76,12.56
98,305.5,0.0500,-60.38,7.59
99,309.0,0.0500,-59.95,10.16
100,312.6,0.0500,-59.94,7.17
101,316.2,0.0500,-60.16,6.15
102,319.9,0.0500,-60.64,8.48
103,323.6,0.0500,-59.91,5.38
104,327.3,0.0500,-60.01,8.58
105,331.1,0.0500,-60.46,7.88
106,335.0,0.0500,-60.11,5.49
107,338.8,0.0500,-59.57,6.91
108,342.8,0.0500,-60.06,9.81
109,346.7,0.0500,-59.97,11.16
110,350.8,0.0500,-60.60,9.15
111,354.8,0.0500,-60.14,12.50
112,358.9,0.0500,-60.27,12.08
113,363.1,0.0500,-59.95,6.64
114,367.3,0.0500,-60.05,9.81
115,371.5,0.0500,-59.70,7.90
116,375.8,0.0500,-59.94,10.61
117,380.2,0.0500,-59.75,11.97
118,384.6,0.0500,-60.45,6.35
119,389.0,0.0500,-59.97,11.57
120,393.6,0.0500,-59.86,8.64
121,398.1,0.0500,-59.98,10.31
122,402.7,0.0500,-59.95,9.15
123,407.4,0.0500,-60.09,9.38
124,412.1,0.0500,-59.25,11.46
125,416.9,0.0500,-60.28,11.93
126,421.7,0.0500,-60.05,9.82
127,426.6,0.0500,-60.20,8.96
128,431.5,0.0500,-60.07,10.98
129,436.5,0.0500,-60.10,10.31
130,441.6,0.0500,-59.95,12.38
131,446.7,0.0500,-59.25,7.43
132,451.9,0.0500,-60.10,13.80
133,457.1,0.0500,-59.57,7.92
134,462.4,0.0500,-59.83,10.08
135,467.7,0.0500,-60.49,14.31
136,473.2,0.0500,-59.69,12.62
137,478.6,0.0500,-60.37,11.26
138,484.2,0.0500,-59.87,14.11
139,489.8,0.0500,-60.12,14.99
140,495.5,0.0500,-60.38,12.01
141,501.2,0.0500,-59.65,15.71
142,507.0,0.0500,-59.58,14.61
143,512.9,0.0500,-59.67,17.50
144,518.8,0.0500,-59.48,12.42
145,524.8,0.0500,-60.01,14.14
146,530.9,0.0500,-59.65,14.26
147,537.0,0.0500,-59.64,15.01
148,543.3,0.0500,-59.86,12.92
149,549.5,0.0500,-59.87,12.57
150,555.9,0.0500,-60.36,14.29
151,562.3,0.0500,-59.75,15.13
152,568.9,0.0500,-59.28,11.26
153,575.4,0.0500,-59.54,13.42
154,582.1,0.0500,-59.10,12.73
155,588.8,0.0500,-59.46,14.40
156,595.7,0.0500,-59.63,15.87
157,602.6,0.0500,-59.32,14.46
158,609.5,0.0500,-59.95,15.06
159,616.6,0.0500,-59.85,17.88
160,623.7,0.0500,-59.36,18.46
161,631.0,0.0500,-59.80,17.72
162,638.3,0.0500,-59.87,16.85
163,645.7,0.0500,-59.36,15.36
164,653.1,0.0500,-59.79,14.57
165,660.7,0.0500,-59.68,17.38
166,668.3,0.0500,-59.07,16.40
167,676.1,0.0500,-59.83,20.80
168,683.9,0.0500,-59.42,17.92
169,691.8,0.0500,-59.78,14.60
170,699.8,0.0500,-60.14,15.72
171,707.9,0.0500,-59.59,18.63
172,716.1,0.0500,-59.04,20.18
173,724.4,0.0500,-59.74,14.08
174,732.8,0.0500,-58.96,18.44
175,741.3,0.0500,-59.42,20.92
176,749.9,0.0500,-59.05,14.87
177,758.6,0.0500,-59.02,17.07
178,767.4,0.0500,-58.90,23.42
179,776.2,0.0500,-59.46,22.32
180,785.2,0.0500,-59.47,21.17
181,794.3,0.0500,-59.63,21.83
182,803.5,0.0500,-59.99,19.92
183,812.8,0.0500,-59.20,24.03
184,822.2,0.0500,-58.84,20.79
185,831.8,0.0500,-59.36,22.20
186,841.4,0.0500,-59.20,20.05
187,851.1,0.0500,-59.57,21.39
188,861.0,0.0500,-59.57,21.39
189,871.0,0.0500,-58.89,24.11
190,881.0,0.0500,-59.72,20.87
191,891.3,0.0500,-59.52,23.71
192,901.6,0.0500,-59.37,21.98
193,912.0,0.0500,-59.19,19.19
194,922.6,0.0500,-58.93,21.42
195,933.3,0.0500,-59.55,22.42
196,944.1,0.0500,-59.55,21.30
197,955.0,0.0500,-59.72,21.83
198,966.1,0.0500,-58.45,22.60
199,977.2,0.0500,-58.74,22.44
200,988.6,0.0500,-59.65,27.49
201,1000.0,0.0500,-59.12,25.00
202,1011.6,0.0500,-58.68,28.06
203,1023.3,0.0500,-58.60,26.51
204,1035.1,0.0500,-59.16,25.31
205,1047.1,0.0500,-59.03,24.71
206,1059.3,0.0500,-58.58,25.38
207,1071.5,0.0500,-59.10,25.84
208,1083.9,0.0500,-59.13,24.82
209,1096.5,0.0500,-58.42,26.77
210,1109.2,0.0500,-58.50,29.07
211,1122.0,0.0500,-58.46,25.50
212,1135.0,0.0500,-59.53,29.48
213,1148.2,0.0500,-58.63,25.38
214,1161.4,0.0500,-58.85,26.11
215,1174.9,0.0500,-58.06,26.77
216,1188.5,0.0500,-58.59,25.30
217,1202.3,0.0500,-58.87,28.44
218,1216.2,0.0500,-58.47,28.08
219,1230.3,0.0500,-59.11,25.13
220,1244.5,0.0500,-57.89,27.29
221,1258.9,0.0500,-58.50,28.10
222,1273.5,0.0500,-59.20,29.79
223,1288.2,0.0500,-58.71,27.59
224,1303.2,0.0500,-58.16,33.69
225,1318.3,0.0500,-58.31,27.90
226,1333.5,0.0500,-58.62,34.30
227,1349.0,0.0500,-59.12,30.51
228,1364.6,0.0500,-57.80,33.11
229,1380.4,0.0500,-57.44,29.40
230,1396.4,0.0500,-58.41,31.02
231,1412.5,0.0500,-58.40,33.77
232,1428.9,0.0500,-57.77,31.25
233,1445.4,0.0500,-58.38,35.21
234,1462.2,0.0500,-57.78,35.50
235,1479.1,0.0500,-58.27,33.48
236,1496.2,0.0500,-58.71,30.85
237,1513.6,0.0500,-57.76,31.51
238,1531.1,0.0500,-59.00,26.90
239,1548.8,0.0500,-57.82,32.01
240,1566.8,0.0500,-58.61,27.79
241,1584.9,0.0500,-57.42,35.91
242,1603.2,0.0500,-58.07,38.88
243,1621.8,0.0500,-57.40,33.96
244,1640.6,0.0500,-57.27,38.76
245,1659.6,0.0500,-57.30,33.07
246,1678.8,0.0500,-57.51,34.62
247,1698.2,0.0500,-58.09,30.44
248,1717.9,0.0500,-57.39,35.88
249,1737.8,0.0500,-57.63,36.09
250,1757.9,0.0500,-58.45,30.48
251,1778.3,0.0500,-56.97,37.28
252,1798.9,0.0500,-58.09,36.51
253,1819.7,0.0500,-57.82,40.74
254,1840.8,0.0500,-57.18,45.36
255,1862.1,0.0500,-57.49,40.84
256,1883.6,0.0500,-57.44,36.56
257,1905.5,0.0500,-56.35,38.40
258,1927.5,0.0500,-57.67,44.47
259,1949.8,0.0500,-57.63,41.20
260,1972.4,0.0500,-58.26,38.02
261,1995.3,0.0500,-57.45,45.60
262,2018.4,0.0500,-57.33,43.17
263,2041.7,0.0500,-56.55,41.43
264,2065.4,0.0500,-57.07,41.51
265,2089.3,0.0500,-56.90,41.91
266,2113.5,0.0500,-57.04,43.88
267,2138.0,0.0500,-57.09,44.86
268,2162.7,0.0500,-56.64,42.90
269,2187.8,0.0500,-57.13,46.12
270,2213.1,0.0500,-56.58,44.71
271,2238.7,0.0500,-56.82,46.34
272,2264.6,0.0500,-56.58,45.65
273,2290.9,0.0500,-56.87,44.81
274,2317.4,0.0500,-56.53,45.73
275,2344.2,0.0500,-56.54,46.34
276,2371.4,0.0500,-56.32,44.17
277,2398.8,0.0500,-57.03,45.48
278,2426.6,0.0500,-56.65,48.55
279,2454.7,0.0500,-56.73,43.94
280,2483.1,0.0500,-57.57,44.11
281,2511.9,0.0500,-55.79,47.36
282,2541.0,0.0500,-55.81,46.48
283,2570.4,0.0500,-55.74,46.20
284,2600.2,0.0500,-55.89,46.58
285,2630.3,0.0500,-55.23,50.52
286,2660.7,0.0500,-55.42,53.79
287,2691.5,0.0500,-55.79,49.53
288,2722.7,0.0500,-55.79,48.27
289,2754.2,0.0500,-55.03,50.48
290,2786.1,0.0500,-55.76,52.19
291,2818.4,0.0500,-55.68,46.91
292,2851.0,0.0500,-55.58,51.40
293,2884.0,0.0500,-55.24,51.96
294,2917.4,0.0500,-55.63,48.26
295,2951.2,0.0500,-55.21,52.04
296,2985.4,0.0500,-54.84,52.72
297,3020.0,0.0500,-54.89,50.41
298,3054.9,0.0500,-55.79,53.62
299,3090.3,0.0500,-54.38,48.81
300,3126.1,0.0500,-54.74,52.66
301,3162.3,0.0500,-54.85,54.18
302,3198.9,0.0500,-54.63,51.99
303,3235.9,0.0500,-55.11,54.07
304,3273.4,0.0500,-54.91,51.13
305,3311.3,0.0500,-55.16,49.58
306,3349.7,0.0500,-54.96,55.93
307,3388.4,0.0500,-54.81,53.45
308,3427.7,0.0500,-54.88,54.60
309,3467.4,0.0500,-54.52,57.12
310,3507.5,0.0500,-54.49,52.03
311,3548.1,0.0500,-53.99,59.60
312,3589.2,0.0500,-53.99,53.49
313,3630.8,0.0500,-54.07,55.04
314,3672.8,0.0500,-54.36,55.15
315,3715.4,0.0500,-55.05,54.77
316,3758.4,0.0500,-53.77,59.61
317,3801.9,0.0500,-53.65,55.61
318,3845.9,0.0500,-54.32,56.77
319,3890.5,0.0500,-53.78,58.49
320,3935.5,0.0500,-53.45,60.52
321,3981.1,0.0500,-53.56,57.45
322,4027.2,0.0500,-53.59,57.93
323,4073.8,0.0500,-53.24,57.26
324,4121.0,0.0500,-53.19,59.17
325,4168.7,0.0500,-53.44,56.79
326,4217.0,0.0500,-52.97,59.62
327,4265.8,0.0500,-52.98,57.72
328,4315.2,0.0500,-53.16,58.94
329,4365.2,0.0500,-53.28,60.33
330,4415.7,0.0500,-52.94,57.97
331,4466.8,0.0500,-52.84,58.16
332,4518.6,0.0500,-53.55,58.02
333,4570.9,0.0500,-52.85,59.76
334,4623.8,0.0500,-52.35,61.36
335,4677.4,0.0500,-52.68,60.58
336,4731.5,0.0500,-52.37,61.43
337,4786.3,0.0500,-52.00,61.50
338,4841.7,0.0500,-52.07,62.80
339,4897.8,0.0500,-52.28,59.75
340,4954.5,0.0500,-52.41,58.44
341,5011.9,0.0500,-51.65,62.41
342,5069.9,0.0500,-51.84,64.72
343,5128.6,0.0500,-51.96,62.82
344,5188.0,0.0500,-51.68,64.75
345,5248.1,0.0500,-51.64,62.00
346,5308.8,0.0500,-51.21,63.81
347,5370.3,0.0500,-51.53,66.17
348,5432.5,0.0500,-51.00,64.84
349,5495.4,0.0500,-51.35,62.05
350,5559.0,0.0500,-51.32,63.18
351,5623.4,0.0500,-51.15,64.59
352,5688.5,0.0500,-51.13,62.53
353,5754.4,0.0500,-51.00,65.21
354,5821.0,0.0500,-50.78,66.25
355,5888.4,0.0500,-50.60,65.15
356,5956.6,0.0500,-50.68,64.90
357,6025.6,0.0500,-50.99,67.29
358,6095.4,0.0500,-50.53,64.08
359,6166.0,0.0500,-50.42,68.39
360,6237.3,0.0500,-50.22,67.50
361,6309.6,0.0500,-50.19,67.74
362,6382.6,0.0500,-50.31,66.66
363,6456.5,0.0500,-50.20,66.75
364,6531.3,0.0500,-50.15,67.38
365,6606.9,0.0500,-50.07,67.47
366,6683.4,0.0500,-49.95,65.02
367,6760.8,0.0500,-50.13,68.15
368,6839.1,0.0500,-50.08,65.72
369,6918.3,0.0500,-49.81,69.08
370,6998.4,0.0500,-50.04,67.90
371,7079.5,0.0500,-49.72,67.48
372,7161.4,0.0500,-49.52,68.46
373,7244.4,0.0500,-49.52,67.55
374,7328.2,0.0500,-49.48,67.46
375,7413.1,0.0500,-49.51,65.70
376,7498.9,0.0500,-49.29,69.50
377,7585.8,0.0500,-49.37,71.01
378,7673.6,0.0500,-49.16,68.44
379,7762.5,0.0500,-48.72,71.19
380,7852.4,0.0500,-48.96,69.51
381,7943.3,0.0500,-49.07,71.34
382,8035.3,0.0500,-48.57,68.49
383,8128.3,0.0500,-48.69,69.78
384,8222.4,0.0500,-48.47,69.68
385,8317.6,0.0500,-48.55,69.48
386,8414.0,0.0500,-48.35,70.02
387,8511.4,0.0500,-48.16,70.55
388,8609.9,0.0500,-47.94,71.08
389,8709.6,0.0500,-48.14,71.95
390,8810.5,0.0500,-47.87,70.36
391,8912.5,0.0500,-47.85,70.49
392,9015.7,0.0500,-47.78,72.53
393,9120.1,0.0500,-47.56,71.80
394,9225.7,0.0500,-47.52,71.71
395,9332.5,0.0500,-47.07,72.19
396,9440.6,0.0500,-47.37,72.15
397,9549.9,0.0500,-47.42,73.22
398,9660.5,0.0500,-47.20,70.87
399,9772.4,0.0500,-47.05,72.10
400,9885.5,0.0500,-46.95,72.29
401,10000.0,0.0500,-47.06,73.56
402,10115.8,0.0500,-46.66,71.79
403,10232.9,0.0500,-46.70,72.57
404,10351.4,0.0500,-46.66,72.96
405,10471.3,0.0500,-46.66,73.02
406,10592.5,0.0500,-46.51,72.42
407,10715.2,0.0500,-46.43,72.65
408,10839.3,0.0500,-46.20,73.66
409,10964.8,0.0500,-46.17,73.85
410,11091.7,0.0500,-46.06,72.76
411,11220.2,0.0500,-46.00,73.12
412,11350.1,0.0500,-45.85,73.73
413,11481.5,0.0500,-45.76,74.75
414,11614.5,0.0500,-45.65,74.32
415,11749.0,0.0500,-45.63,73.69
416,11885.0,0.0500,-45.49,75.01
417,12022.6,0.0500,-45.51,75.04
418,12161.9,0.0500,-45.22,75.98
419,12302.7,0.0500,-45.25,74.10
420,12445.1,0.0500,-45.13,74.43
421,12589.3,0.0500,-44.95,75.42
422,12735.0,0.0500,-44.87,74.62
423,12882.5,0.0500,-44.98,75.67
424,13031.7,0.0500,-45.00,74.83
425,13182.6,0.0500,-44.61,75.41
426,13335.2,0.0500,-44.83,74.06
427,13489.6,0.0500,-44.79,73.68
428,13645.8,0.0500,-44.56,75.87
429,13803.8,0.0500,-44.54,73.93
430,13963.7,0.0500,-44.32,76.01
431,14125.4,0.0500,-44.12,76.20
432,14288.9,0.0500,-43.99,75.19
433,14454.4,0.0500,-43.97,75.19
434,14621.8,0.0500,-43.83,76.30
435,14791.1,0.0500,-43.77,76.71
436,14962.4,0.0500,-43.66,76.34
437,15135.6,0.0500,-43.64,76.26
438,15310.9,0.0500,-43.52,75.92
439,15488.2,0.0500,-43.43,76.67
440,15667.5,0.0500,-43.31,76.28
441,15848.9,0.0500,-43.26,76.30
442,16032.5,0.0500,-43.14,76.35
443,16218.1,0.0500,-43.00,76.62
444,16405.9,0.0500,-42.95,76.57
445,16595.9,0.0500,-43.00,76.59
446,16788.0,0.0500,-42.80,76.15
447,16982.4,0.0500,-42.79,76.98
448,17179.1,0.0500,-42.73,76.84
449,17378.0,0.0500,-42.61,76.89
450,17579.2,0.0500,-42.34,77.76
451,17782.8,0.0500,-42.26,77.36
452,17988.7,0.0500,-41.96,77.02
453,18197.0,0.0500,-42.07,78.13
454,18407.7,0.0500,-42.05,76.95
455,18620.9,0.0500,-41.93,77.12
456,18836.5,0.0500,-41.86,77.80
457,19054.6,0.0500,-41.75,77.52
458,19275.2,0.0500,-41.71,76.97
459,19498.4,0.0500,-41.55,77.36
460,19724.2,0.0500,-41.53,77.62
461,19952.6,0.0500,-41.38,77.56
462,20183.7,0.0500,-41.33,77.22
463,20417.4,0.0500,-41.13,77.30
464,20653.8,0.0500,-41.07,78.53
465,20893.0,0.0500,-40.99,77.60
466,21134.9,0.0500,-40.96,77.77
467,21379.6,0.0500,-40.80,77.61
468,21627.2,0.0500,-40.72,77.68
469,21877.6,0.0500,-40.75,78.01
470,22130.9,0.0500,-40.56,77.94
471,22387.2,0.0500,-40.57,78.03
472,22646.4,0.0500,-40.43,78.08
473,22908.7,0.0500,-40.24,78.59
474,23173.9,0.0500,-40.16,78.31
475,23442.3,0.0500,-40.07,78.19
476,23713.7,0.0500,-39.94,78.38
477,23988.3,0.0500,-39.87,78.62
478,24266.1,0.0500,-39.81,78.57
479,24547.1,0.0500,-39.72,78.04
480,24831.3,0.0500,-39.56,78.81
481,25118.9,0.0500,-39.46,78.29
482,25409.7,0.0500,-39.50,78.40
483,25704.0,0.0500,-39.25,78.89
484,26001.6,0.0500,-39.31,78.79
485,26302.7,0.0500,-39.14,78.58
486,26607.3,0.0500,-39.01,78.95
487,26915.3,0.0500,-38.97,78.73
488,27227.0,0.0500,-38.84,78.81
489,27542.3,0.0500,-38.76,79.11
490,27861.2,0.0500,-38.72,78.85
491,28183.8,0.0500,-38.59,79.26
492,28510.2,0.0500,-38.47,78.93
493,28840.3,0.0500,-38.39,79.14
494,29174.3,0.0500,-38.31,78.85
495,29512.1,0.0500,-38.17,78.87
496,29853.8,0.0500,-38.05,79.10
497,30199.5,0.0500,-38.04,79.21
498,30549.2,0.0500,-37.93,79.11
499,30903.0,0.0500,-37.80,79.15
500,31260.8,0.0500,-37.73,79.22
501,31622.8,0.0500,-37.71,79.50
502,31989.0,0.0500,-37.60,79.15
503,32359.4,0.0500,-37.41,78.84
504,32734.1,0.0500,-37.35,79.25
505,33113.1,0.0500,-37.31,79.16
506,33496.5,0.0500,-37.18,79.37
507,33884.4,0.0500,-37.10,78.94
508,34276.8,0.0500,-36.95,79.67
509,34673.7,0.0500,-36.92,79.39
510,35075.2,0.0500,-36.83,79.44
511,35481.3,0.0500,-36.65,79.25
512,35892.2,0.0500,-36.56,79.58
513,36307.8,0.0500,-36.50,79.61
514,36728.2,0.0500,-36.39,79.60
515,37153.5,0.0500,-36.30,79.08
516,37583.7,0.0500,-36.21,79.81
517,38018.9,0.0500,-36.12,79.64
518,38459.2,0.0500,-36.05,79.67
519,38904.5,0.0500,-35.90,79.49
520,39355.0,0.0500,-35.91,79.31
521,39810.7,0.0500,-35.73,79.44
522,40271.7,0.0500,-35.76,79.52
523,40738.0,0.0500,-35.56,79.67
524,41209.8,0.0500,-35.43,79.65
525,41686.9,0.0500,-35.37,79.59
526,42169.7,0.0500,-35.29,79.43
527,42658.0,0.0500,-35.15,79.83
528,43151.9,0.0500,-35.09,79.84
529,43651.6,0.0500,-34.99,79.79
530,44157.0,0.0500,-34.84,80.13
531,44668.4,0.0500,-34.74,79.83
532,45185.6,0.0500,-34.70,79.82
533,45708.8,0.0500,-34.62,79.54
534,46238.1,0.0500,-34.45,79.94
535,46773.5,0.0500,-34.40,79.84
536,47315.1,0.0500,-34.36,80.07
537,47863.0,0.0500,-34.22,80.22
538,48417.2,0.0500,-34.11,79.54
539,48977.9,0.0500,-34.02,79.79
540,49545.0,0.0500,-33.85,79.43
541,50118.7,0.0500,-33.83,79.77
542,50699.1,0.0500,-33.71,79.78
543,51286.1,0.0500,-33.60,79.78
544,51880.0,0.0500,-33.53,79.54
545,52480.7,0.0500,-33.36,79.87
546,53088.4,0.0500,-33.31,79.55
547,53703.2,0.0500,-33.25,79.42
548,54325.0,0.0500,-33.11,80.00
549,54954.1,0.0500,-33.01,79.50
550,55590.4,0.0500,-32.94,79.86
551,56234.1,0.0500,-32.83,79.95
552,56885.3,0.0500,-32.70,79.67
553,57544.0,0.0500,-32.71,79.86
554,58210.3,0.0500,-32.57,79.50
555,58884.4,0.0500,-32.47,79.42
556,59566.2,0.0500,-32.31,79.65
557,60256.0,0.0500,-32.26,79.37
558,60953.7,0.0500,-32.24,79.96
559,61659.5,0.0500,-32.11,79.62
560,62373.5,0.0500,-31.90,79.86
561,63095.7,0.0500,-31.90,79.52
562,63826.3,0.0500,-31.75,79.55
563,64565.4,0.0500,-31.64,79.45
564,65313.1,0.0500,-31.51,79.54
565,66069.3,0.0500,-31.56,80.11
566,66834.4,0.0500,-31.41,79.69
567,67608.3,0.0500,-31.29,79.52
568,68391.2,0.0500,-31.27,79.25
569,69183.1,0.0500,-31.09,79.09
570,69984.2,0.0500,-30.96,79.42
571,70794.6,0.0500,-30.93,79.56
572,71614.3,0.0500,-30.79,79.45
573,72443.6,0.0500,-30.69,79.50
574,73282.5,0.0500,-30.58,79.52
575,74131.0,0.0500,-30.50,79.53
576,74989.4,0.0500,-30.46,79.67
577,75857.8,0.0500,-30.28,80.01
578,76736.1,0.0500,-30.23,79.37
579,77624.7,0.0500,-30.03,79.49
580,78523.6,0.0500,-29.96,79.80
581,79432.8,0.0500,-29.89,79.23
582,80352.6,0.0500,-29.85,79.25
583,81283.1,0.0500,-29.71,79.19
584,82224.3,0.0500,-29.63,79.01
585,83176.4,0.0500,-29.45,79.25
586,84139.5,0.0500,-29.36,79.35
587,85113.8,0.0500,-29.29,79.18
588,86099.4,0.0500,-29.18,79.31
589,87096.4,0.0500,-29.10,79.27
590,88104.9,0.0500,-29.01,79.28
591,89125.1,0.0500,-28.87,79.53
592,90157.1,0.0500,-28.84,79.08
593,91201.1,0.0500,-28.67,79.35
594,92257.1,0.0500,-28.59,78.98
595,93325.4,0.0500,-28.52,79.24
596,94406.1,0.0500,-28.32,78.90
597,95499.3,0.0500,-28.25,79.24
598,96605.1,0.0500,-28.15,79.28
599,97723.7,0.0500,-28.02,78.76
600,98855.3,0.0500,-27.95,79.07
601,100000.0,0.0500,-27.82,78.76
602,101157.9,0.0500,-27.73,78.93
603,102329.3,0.0500,-27.62,78.77
604,103514.2,0.0500,-27.56,78.80
605,104712.9,0.0500,-27.43,78.67
606,105925.4,0.0500,-27.30,78.89
607,107151.9,0.0500,-27.21,78.66
608,108392.7,0.0500,-27.04,78.35
609,109647.8,0.0500,-26.98,78.40
610,110917.5,0.0500,-26.77,78.49
611,112201.8,0.0500,-26.76,78.55
612,113501.1,0.0500,-26.75,78.50
613,114815.4,0.0500,-26.61,78.54
614,116144.9,0.0500,-26.41,78.35
615,117489.8,0.0500,-26.33,78.45
616,118850.2,0.0500,-26.23,78.42
617,120226.4,0.0500,-26.08,78.14
618,121618.6,0.0500,-25.98,78.50
619,123026.9,0.0500,-25.86,78.10
620,124451.5,0.0500,-25.81,78.30
621,125892.5,0.0500,-25.67,77.81
622,127350.3,0.0500,-25.53,78.03
623,128825.0,0.0500,-25.34,77.52
624,130316.7,0.0500,-25.23,77.92
625,131825.7,0.0500,-25.31,79.30
626,133352.1,0.0500,-25.09,77.67
627,134896.3,0.0500,-24.97,77.63
628,136458.3,0.0500,-24.85,77.06
629,138038.4,0.0500,-24.71,77.42
630,139636.8,0.0500,-24.67,76.95
631,141253.8,0.0500,-24.47,77.43
632,142889.4,0.0500,-24.29,77.30
633,144544.0,0.0500,-24.21,77.08
634,146217.7,0.0500,-24.11,77.03
635,147910.8,0.0500,-23.98,77.09
636,149623.6,0.0500,-23.88,76.95
637,151356.1,0.0500,-23.72,77.47
638,153108.7,0.0500,-23.54,77.77
639,154881.7,0.0500,-23.47,75.77
640,156675.1,0.0500,-23.44,77.42
641,158489.3,0.0500,-23.27,75.08
642,160324.5,0.0500,-22.77,76.80
643,162181.0,0.0500,-22.98,76.22
644,164059.0,0.0500,-22.88,76.10
645,165958.7,0.0500,-23.08,74.28
646,167880.4,0.0500,-22.35,75.65
647,169824.4,0.0500,-22.50,75.59
648,171790.8,0.0500,-22.39,76.75
649,173780.1,0.0500,-22.23,75.60
650,175792.4,0.0500,-22.09,75.52
651,177827.9,0.0500,-21.93,75.46
652,179887.1,0.0500,-21.91,76.33
653,181970.1,0.0500,-21.79,75.04
654,184077.2,0.0500,-21.49,74.34
655,186208.7,0.0500,-21.38,74.71
656,188364.9,0.0500,-21.27,74.98
657,190546.1,0.0500,-21.07,74.43
658,192752.5,0.0500,-20.99,74.10
659,194984.5,0.0500,-20.60,75.18
660,197242.3,0.0500,-20.67,73.75
661,199526.2,0.0500,-20.56,73.56
662,201836.6,0.0500,-20.18,72.34
663,204173.8,0.0500,-19.95,73.42
664,206538.0,0.0500,-20.06,73.25
665,208929.6,0.0500,-19.96,72.50
666,211348.9,0.0500,-19.73,69.97
667,213796.2,0.0500,-19.57,72.19
668,216271.9,0.0500,-19.48,72.07
669,218776.2,0.0500,-19.28,71.84
670,221309.5,0.0500,-19.04,71.37
671,223872.1,0.0500,-19.02,71.19
672,226464.4,0.0500,-18.83,71.95
673,229086.8,0.0500,-18.64,70.43
674,231739.5,0.0500,-18.47,70.45
675,234422.9,0.0500,-18.35,71.02
676,237137.4,0.0500,-17.95,69.92
677,239883.3,0.0500,-17.95,69.56
678,242661.0,0.0500,-17.76,69.29
679,245470.9,0.0500,-17.58,69.22
680,248313.3,0.0500,-17.41,68.75
681,251188.6,0.0500,-17.30,67.54
682,254097.3,0.0500,-16.91,67.57
683,257039.6,0.0500,-16.78,65.00
684,260016.0,0.0500,-16.58,67.22
685,263026.8,0.0500,-16.25,66.45
686,266072.5,0.0500,-15.98,66.03
687,269153.5,0.0500,-15.96,65.94
688,272270.1,0.0500,-15.77,65.23
689,275422.9,0.0500,-15.56,64.74
690,278612.1,0.0500,-15.27,63.89
691,281838.3,0.0500,-15.02,64.11
692,285101.8,0.0500,-14.86,62.80
693,288403.2,0.0500,-14.58,62.22
694,291742.7,0.0500,-14.48,61.68
695,295120.9,0.0500,-14.10,61.63
696,298538.3,0.0500,-13.99,60.47
697,301995.2,0.0500,-13.67,60.18
698,305492.1,0.0500,-13.37,59.88
699,309029.5,0.0500,-13.20,58.00
700,312607.9,0.0500,-12.78,57.30
701,316227.8,0.0500,-12.63,54.77
702,319889.5,0.0500,-12.46,54.41
703,323593.7,0.0500,-12.07,53.69
704,327340.7,0.0500,-11.86,52.95
705,331131.1,0.0500,-11.65,49.03
706,334965.4,0.0500,-11.28,50.36
707,338844.2,0.0500,-11.00,48.84
708,342767.8,0.0500,-10.36,48.37
709,346736.9,0.0500,-10.25,47.00
710,350751.9,0.0500,-10.05,43.99
711,354813.4,0.0500,-9.72,42.33
712,358921.9,0.0500,-9.47,40.25
713,363078.1,0.0500,-9.09,38.24
714,367282.3,0.0500,-8.44,36.33
715,371535.2,0.0500,-8.49,33.38
716,375837.4,0.0500,-8.14,31.45
717,380189.4,0.0500,-7.73,25.88
718,384591.8,0.0500,-7.61,24.82
719,389045.1,0.0500,-7.46,21.62
720,393550.1,0.0500,-7.09,18.31
721,398107.2,0.0500,-6.83,15.75
722,402717.0,0.0500,-6.54,10.81
723,407380.3,0.0500,-6.67,7.95
724,412097.5,0.0500,-6.43,2.91
725,416869.4,0.0500,-6.38,-1.35
726,421696.5,0.0500,-6.36,-5.30
727,426579.5,0.0500,-6.35,-9.85
728,431519.1,0.0500,-6.46,-13.77
729,436515.8,0.0500,-6.58,-18.09
730,441570.4,0.0500,-6.74,-21.93
731,446683.6,0.0500,-7.00,-26.11
732,451855.9,0.0500,-7.13,-29.34
733,457088.2,0.0500,-7.39,-33.06
734,462381.0,0.0500,-7.70,-34.51
735,467735.1,0.0500,-8.01,-39.21
736,473151.3,0.0500,-8.22,-42.39
737,478630.1,0.0500,-8.55,-44.99
738,484172.4,0.0500,-8.90,-47.32
739,489778.8,0.0500,-9.17,-49.47
740,495450.2,0.0500,-9.19,-48.59
741,501187.2,0.0500,-9.86,-53.80
742,506990.7,0.0500,-10.11,-56.14
743,512861.4,0.0500,-10.49,-58.17
744,518800.0,0.0500,-10.90,-58.96
745,524807.5,0.0500,-11.15,-60.59
746,530884.4,0.0500,-11.47,-61.88
747,537031.8,0.0500,-11.91,-63.39
748,543250.3,0.0500,-12.09,-64.72
749,549540.9,0.0500,-12.42,-65.69
750,555904.3,0.0500,-12.72,-67.25
751,562341.3,0.0500,-13.04,-67.78
752,568852.9,0.0500,-13.43,-66.39
753,575439.9,0.0500,-13.49,-70.40
754,582103.2,0.0500,-13.80,-70.34
755,588843.7,0.0500,-14.18,-72.82
756,595662.1,0.0500,-14.43,-72.56
757,602559.6,0.0500,-14.64,-73.21
758,609536.9,0.0500,-14.78,-73.74
759,616595.0,0.0500,-15.21,-74.40
760,623734.8,0.0500,-15.26,-75.92
761,630957.3,0.0500,-15.22,-67.81
762,638263.5,0.0500,-15.80,-77.79
763,645654.2,0.0500,-16.26,-77.64
764,653130.6,0.0500,-17.78,-72.22
765,660693.4,0.0500,-16.71,-78.01
766,668343.9,0.0500,-16.45,-81.18
767,676083.0,0.0500,-17.53,-75.58
768,683911.6,0.0500,-17.38,-80.04
769,691831.0,0.0500,-17.59,-91.91
770,699842.0,0.0500,-18.02,-80.93
771,707945.8,0.0500,-17.92,-81.85
772,716143.4,0.0500,-17.99,-78.31
773,724436.0,0.0500,-17.99,-73.61
774,732824.5,0.0500,-18.78,-80.97
775,741310.2,0.0500,-20.01,-87.48
776,749894.2,0.0500,-19.76,-85.22
777,758577.6,0.0500,-18.99,-82.83
778,767361.5,0.0500,-19.68,-82.78
779,776247.1,0.0500,-19.95,-84.52
780,785235.6,0.0500,-17.79,-91.32
781,794328.2,0.0500,-20.44,-80.83
782,803526.1,0.0500,-20.51,-82.21
783,812830.5,0.0500,-20.76,-80.94
784,822242.6,0.0500,-20.91,-82.20
785,831763.8,0.0500,-21.42,-82.61
786,841395.1,0.0500,-21.40,-82.57
787,851138.0,0.0500,-21.74,-81.88
788,860993.8,0.0500,-22.10,-85.61
789,870963.6,0.0500,-22.01,-83.43
790,881048.9,0.0500,-22.70,-81.45
791,891250.9,0.0500,-22.48,-81.37
792,901571.1,0.0500,-23.11,-80.80
793,912010.8,0.0500,-22.97,-76.84
794,922571.4,0.0500,-23.36,-82.36
795,933254.3,0.0500,-22.68,-77.15
796,944060.9,0.0500,-22.83,-68.59
797,954992.6,0.0500,-23.13,-74.96
798,966050.9,0.0500,-23.61,-68.93
799,977237.2,0.0500,-23.93,-77.96
800,988553.1,0.0500,-22.84,-66.80
801,1000000.0,0.0500,-22.77,-69.68
802,1011579.5,0.0500,-22.14,-65.54
803,1023293.0,0.0500,-22.42,-70.43
804,1035142.2,0.0500,-22.52,-70.41
805,1047128.5,0.0500,-21.83,-73.61
806,1059253.7,0.0500,-22.21,-74.55
807,1071519.3,0.0500,-22.27,-74.76
808,1083926.9,0.0500,-21.70,-77.72
809,1096478.2,0.0500,-22.17,-80.10
810,1109174.8,0.0500,-21.85,-81.52
811,1122018.5,0.0500,-23.24,-78.82
812,1135010.8,0.0500,-22.48,-83.25
813,1148153.6,0.0500,-22.94,-85.25
814,1161448.6,0.0500,-22.38,-84.79
815,1174897.6,0.0500,-22.45,-84.70
816,1188502.2,0.0500,-23.02,-86.52
817,1202264.4,0.0500,-23.18,-85.78
818,1216186.0,0.0500,-24.19,-90.51
819,1230268.8,0.0500,-24.10,-86.50
820,1244514.6,0.0500,-24.06,-89.61
821,1258925.4,0.0500,-24.03,-90.21
822,1273503.1,0.0500,-23.77,-89.41
823,1288249.6,0.0500,-24.71,-93.60
824,1303166.8,0.0500,-23.79,-89.44
825,1318256.7,0.0500,-24.29,-97.13
826,1333521.4,0.0500,-25.34,-88.60
827,1348962.9,0.0500,-25.55,-89.56
828,1364583.1,0.0500,-25.71,-99.72
829,1380384.3,0.0500,-25.47,-91.27
830,1396368.4,0.0500,-25.20,-91.86
831,1412537.5,0.0500,-25.72,-88.58
832,1428894.0,0.0500,-25.71,-97.20
833,1445439.8,0.0500,-25.80,-85.11
834,1462177.2,0.0500,-24.98,-100.19
835,1479108.4,0.0500,-25.09,-81.61
836,1496235.7,0.0500,-25.79,-99.08
837,1513561.2,0.0500,-26.85,-96.05
838,1531087.5,0.0500,-26.30,-89.86
839,1548816.6,0.0500,-27.84,-101.10
840,1566751.1,0.0500,-25.52,-124.68
841,1584893.2,0.0500,-26.68,-101.21
842,1603245.4,0.0500,-26.03,-101.51
843,1621810.1,0.0500,-26.13,-106.61
844,1640589.8,0.0500,-27.15,-105.36
845,1659586.9,0.0500,-27.17,-110.23
846,1678804.0,0.0500,-26.66,-113.79
847,1698243.7,0.0500,-30.36,-95.30
848,1717908.4,0.0500,-27.31,-108.89
849,1737800.8,0.0500,-35.49,-44.78
850,1757923.6,0.0500,-31.19,-97.32
851,1778279.4,0.0500,-31.44,-127.16
852,1798870.9,0.0500,-32.73,-130.87
853,1819700.9,0.0500,-26.34,-106.26
854,1840772.0,0.0500,-31.38,-112.00
855,1862087.1,0.0500,-31.25,-71.14
856,1883649.1,0.0500,-37.32,-126.72
857,1905460.7,0.0500,-31.94,109.34
858,1927524.9,0.0500,-35.02,-116.42
859,1949844.6,0.0500,-34.15,-124.52
860,1972422.7,0.0500,-36.75,-114.61
861,1995262.3,0.0500,-39.87,-106.19
862,2018366.4,0.0500,-36.17,-104.89
863,2041737.9,0.0500,-32.97,-54.54
864,2065380.2,0.0500,-34.38,-39.41
865,2089296.1,0.0500,-33.18,-40.17
866,2113489.0,0.0500,-30.12,-71.19
867,2137962.1,0.0500,-31.08,-52.17
868,2162718.5,0.0500,-29.18,-70.97
869,2187761.6,0.0500,-29.94,-75.65
870,2213094.7,0.0500,-28.93,-65.94
871,2238721.1,0.0500,-29.20,-72.59
872,2264644.3,0.0500,-29.66,-79.51
873,2290867.7,0.0500,-30.88,-64.79
874,2317394.6,0.0500,-29.99,-85.03
875,2344228.8,0.0500,-30.61,-88.38
876,2371373.7,0.0500,-28.54,-92.14
877,2398832.9,0.0500,-33.23,-84.92
878,2426610.1,0.0500,-30.72,-87.86
879,2454708.9,0.0500,-32.22,-89.14
880,2483133.1,0.0500,-26.36,11.97
881,2511886.4,0.0500,-32.30,-92.77
882,2540972.7,0.0500,-29.07,-93.41
883,2570395.8,0.0500,-29.86,-119.08
884,2600159.6,0.0500,-31.15,-89.64
885,2630268.0,0.0500,-31.89,-96.41
886,2660725.1,0.0500,-32.01,-112.81
887,2691534.8,0.0500,-22.99,-102.72
888,2722701.3,0.0500,-33.21,-112.73
889,2754228.7,0.0500,-35.61,-135.81
890,2786121.2,0.0500,-34.41,-109.56
891,2818382.9,0.0500,-34.64,-115.72
892,2851018.3,0.0500,-36.35,-101.62
893,2884031.5,0.0500,-35.31,-96.56
894,2917427.0,0.0500,-35.60,-93.13
895,2951209.2,0.0500,-37.39,-107.96
896,2985382.6,0.0500,-36.41,-86.41
897,3019951.7,0.0500,-40.51,-100.94
898,3054921.1,0.0500,-38.11,-71.87
899,3090295.4,0.0500,-35.79,-78.09
900,3126079.4,0.0500,-35.57,-70.89
901,3162277.7,0.0500,-32.15,-82.30
902,3198895.1,0.0500,-30.84,-105.72
903,3235936.6,0.0500,-35.65,-83.34
904,3273406.9,0.0500,-36.09,-91.85
905,3311311.2,0.0500,-41.56,-110.71
906,3349654.4,0.0500,-34.89,-102.16
907,3388441.6,0.0500,-33.98,-88.77
908,3427677.9,0.0500,-33.80,-113.24
909,3467368.5,0.0500,-36.70,-95.12
910,3507518.7,0.0500,-34.00,-93.17
911,3548133.9,0.0500,-38.97,-90.88
912,3589219.3,0.0500,-35.35,-95.49
913,3630780.5,0.0500,-38.61,-87.13
914,3672823.0,0.0500,-36.93,-107.53
915,3715352.3,0.0500,-35.02,-100.32
916,3758374.0,0.0500,-35.77,-77.63
917,3801894.0,0.0500,-34.73,-84.21
918,3845917.8,0.0500,-42.35,-138.53
919,3890451.4,0.0500,-35.39,-79.80
920,3935500.8,0.0500,-32.07,-86.40
921,3981071.7,0.0500,-37.53,-110.23
922,4027170.3,0.0500,-37.03,-85.06
923,4073802.8,0.0500,-40.18,-128.00
924,4120975.2,0.0500,-47.75,-119.47
925,4168693.8,0.0500,-36.68,69.01
926,4216965.0,0.0500,-36.20,-94.58
927,4265795.2,0.0500,-40.00,-97.10
928,4315190.8,0.0500,-37.26,-112.52
929,4365158.3,0.0500,-23.36,187.86
930,4415704.5,0.0500,-37.79,-108.11
931,4466835.9,0.0500,-40.76,-112.40
932,4518559.4,0.0500,-36.74,-95.53
933,4570881.9,0.0500,-46.27,-63.62
934,4623810.2,0.0500,-40.50,-109.20
935,4677351.4,0.0500,-48.41,170.00
936,4731512.6,0.0500,-40.24,-81.37
937,4786300.9,0.0500,-41.79,-64.03
938,4841723.7,0.0500,-36.88,-71.73
939,4897788.2,0.0500,-40.65,-66.71
940,4954501.9,0.0500,-38.13,-79.47
941,5011872.3,0.0500,-22.61,8.38
942,5069907.1,0.0500,-37.47,-87.64
943,5128613.8,0.0500,-43.46,-98.76
944,5188000.4,0.0500,-40.10,-71.92
945,5248074.6,0.0500,-36.12,-84.28
946,5308844.4,0.0500,-37.43,-96.29
947,5370318.0,0.0500,-37.94,-85.71
948,5432503.3,0.0500,-41.73,-97.71
949,5495408.7,0.0500,-38.64,-92.42
950,5559042.6,0.0500,-30.78,-2.54
951,5623413.3,0.0500,-40.04,-151.06
952,5688529.3,0.0500,-38.86,-73.41
953,5754399.4,0.0500,-41.46,-79.47
954,5821032.2,0.0500,-39.49,-109.85
955,5888436.6,0.0500,-39.90,-113.17
956,5956621.4,0.0500,-46.57,-61.80
957,6025595.9,0.0500,-44.57,-132.66
958,6095369.0,0.0500,-39.26,-82.42
959,6165950.0,0.0500,-41.62,-107.23
960,6237348.4,0.0500,-40.39,107.27
961,6309573.4,0.0500,-37.98,-96.76
962,6382634.9,0.0500,-39.46,-111.40
963,6456542.3,0.0500,-48.27,-69.84
964,6531305.5,0.0500,-41.12,-125.53
965,6606934.5,0.0500,-51.60,-53.77
966,6683439.2,0.0500,-44.48,-29.93
967,6760829.8,0.0500,-41.15,-54.25
968,6839116.5,0.0500,-43.41,-95.76
969,6918309.7,0.0500,-46.26,-130.69
970,6998420.0,0.0500,-40.49,-128.31
971,7079457.8,0.0500,-31.35,182.53
972,7161434.1,0.0500,-44.18,-100.08
973,7244359.6,0.0500,-43.68,-41.09
974,7328245.3,0.0500,-48.00,87.55
975,7413102.4,0.0500,-41.20,-127.37
976,7498942.1,0.0500,-40.89,-55.50
977,7585775.8,0.0500,-43.16,-74.00
978,7673614.9,0.0500,-46.39,171.85
979,7762471.2,0.0500,-41.11,-96.01
980,7852356.3,0.0500,-42.20,-27.24
981,7943282.3,0.0500,-45.53,-7.44
982,8035261.2,0.0500,-53.40,-94.01
983,8128305.2,0.0500,-40.49,51.68
984,8222426.5,0.0500,-29.65,-119.37
985,8317637.7,0.0500,-45.85,47.35
986,8413951.4,0.0500,-42.41,16.69
987,8511380.4,0.0500,-51.63,-72.64
988,8609937.5,0.0500,-55.78,-128.58
989,8709635.9,0.0500,-40.74,-35.85
990,8810488.7,0.0500,-41.36,-27.37
991,8912509.4,0.0500,-46.25,-11.64
992,9015711.4,0.0500,-48.61,18.70
993,9120108.4,0.0500,-48.19,-46.52
994,9225714.3,0.0500,-46.78,-16.09
995,9332543.0,0.0500,-42.06,-25.85
996,9440608.8,0.0500,-42.51,-45.87
997,9549925.9,0.0500,-39.50,-10.74
998,9660508.8,0.0500,-40.64,-47.38
999,9772372.2,0.0500,-41.38,-25.54
1000,9885530.9,0.0500,-38.29,-64.71
1001,10000000.0,0.0500,-39.17,-19.76
