#, Frequency (Hz), Amplitude (Vpp), Gain (dB), Phase (°)
1,100.0,0.0500,-64.92,-4.04
2,101.2,0.0500,-63.51,4.68
3,102.3,0.0500,-64.63,0.86
4,103.5,0.0500,-64.33,0.72
5,104.7,0.0500,-63.93,1.42
6,105.9,0.0500,-63.27,0.45
7,107.2,0.0500,-63.37,2.15
8,108.4,0.0500,-63.38,3.90
9,109.6,0.0500,-63.23,3.32
10,110.9,0.0500,-63.28,5.80
11,112.2,0.0500,-63.82,-3.04
12,113.5,0.0500,-63.91,7.29
13,114.8,0.0500,-64.99,-1.60
14,116.1,0.0500,-64.01,3.72
15,117.5,0.0500,-64.04,5.25
16,118.9,0.0500,-63.94,-0.42
17,120.2,0.0500,-64.06,7.62
18,121.6,0.0500,-64.19,0.63
19,123.0,0.0500,-64.08,0.64
20,124.5,0.0500,-63.50,0.93
21,125.9,0.0500,-64.13,-2.73
22,127.4,0.0500,-63.18,2.60
23,128.8,0.0500,-63.83,-0.43
24,130.3,0.0500,-63.89,9.84
25,131.8,0.0500,-63.62,7.37
26,133.4,0.0500,-63.63,6.34
27,134.9,0.0500,-63.61,2.78
28,136.5,0.0500,-63.41,-0.86
29,138.0,0.0500,-62.83,3.95
30,139.6,0.0500,-64.49,6.56
31,141.3,0.0500,-63.51,7.10
32,142.9,0.0500,-63.82,7.09
33,144.5,0.0500,-63.64,7.79
34,146.2,0.0500,-64.22,8.13
35,147.9,0.0500,-63.53,3.99
36,149.6,0.0500,-64.15,2.87
37,151.4,0.0500,-64.19,9.91
38,153.1,0.0500,-64.23,7.93
39,154.9,0.0500,-63.66,-1.06
40,156.7,0.0500,-62.80,0.30
41,158.5,0.0500,-64.61,9.71
42,160.3,0.0500,-64.24,1.79
43,162.2,0.0500,-64.18,0.86
44,164.1,0.0500,-63.73,7.79
45,166.0,0.0500,-64.43,-3.04
46,167.9,0.0500,-63.48,5.33
47,169.8,0.0500,-63.23,2.19
48,171.8,0.0500,-63.47,3.03
49,173.8,0.0500,-62.97,8.57
50,175.8,0.0500,-63.60,-4.36
51,177.8,0.0500,-62.97,5.34
52,179.9,0.0500,-62.87,6.02
53,182.0,0.0500,-63.55,4.23
54,184.1,0.0500,-63.73,10.11
55,186.2,0.0500,-63.74,6.22
56,188.4,0.0500,-63.63,8.74
57,190.5,0.0500,-63.05,6.88
58,192.8,0.0500,-64.16,0.30
59,195.0,0.0500,-63.80,6.46
60,197.2,0.0500,-63.56,8.84
61,199.5,0.0500,-63.54,6.87
62,201.8,0.0500,-62.55,6.25
63,204.2,0.0500,-62.94,5.15
64,206.5,0.0500,-62.99,6.80
65,208.9,0.0500,-63.26,8.75
66,211.3,0.0500,-64.30,7.27
67,213.8,0.0500,-63.04,5.06
68,216.3,0.0500,-62.74,7.23
69,218.8,0.0500,-63.61,10.44
70,221.3,0.0500,-63.33,10.99
71,223.9,0.0500,-64.17,12.97
72,226.5,0.0500,-63.06,3.89
73,229.1,0.0500,-62.78,14.06
74,231.7,0.0500,-63.29,14.04
75,234.4,0.0500,-63.18,7.52
76,237.1,0.0500,-63.80,7.75
77,239.9,0.0500,-63.58,1.05
78,242.7,0.0500,-64.01,4.91
79,245.5,0.0500,-63.24,8.03
80,248.3,0.0500,-62.64,8.71
81,251.2,0.0500,-62.85,3.86
82,254.1,0.0500,-62.95,8.20
83,257.0,0.0500,-63.33,12.24
84,260.0,0.0500,-62.90,6.19
85,263.0,0.0500,-63.22,8.65
86,266.1,0.0500,-63.36,11.66
87,269.2,0.0500,-63.06,10.33
88,272.3,0.0500,-63.39,18.34
89,275.4,0.0500,-63.55,6.73
90,278.6,0.0500,-63.10,8.60
91,281.8,0.0500,-62.91,2.12
92,285.1,0.0500,-63.16,6.16
93,288.4,0.0500,-63.46,8.54
94,291.7,0.0500,-62.92,8.03
95,295.1,0.0500,-63.51,11.40
96,298.5,0.0500,-63.43,10.03
97,302.0,0.0500,-63.86,7.84
98,305.5,0.0500,-62.46,7.10
99,309.0,0.0500,-62.94,7.65
100,312.6,0.0500,-63.19,10.67
101,316.2,0.0500,-62.50,13.23
102,319.9,0.0500,-63.38,11.49
103,323.6,0.0500,-63.42,14.73
104,327.3,0.0500,-62.71,17.90
105,331.1,0.0500,-63.41,7.93
106,335.0,0.0500,-63.18,13.93
107,338.8,0.0500,-63.22,12.44
108,342.8,0.0500,-63.18,11.72
109,346.7,0.0500,-62.22,6.75
110,350.8,0.0500,-62.58,7.49
111,354.8,0.0500,-62.66,8.40
112,358.9,0.0500,-62.79,14.91
113,363.1,0.0500,-63.32,7.94
114,367.3,0.0500,-63.15,14.01
115,371.5,0.0500,-63.81,9.42
116,375.8,0.0500,-62.17,14.88
117,380.2,0.0500,-62.81,12.01
118,384.6,0.0500,-62.73,10.58
119,389.0,0.0500,-62.75,10.87
120,393.6,0.0500,-63.76,9.16
121,398.1,0.0500,-63.21,10.34
122,402.7,0.0500,-62.64,10.00
123,407.4,0.0500,-63.14,8.11
124,412.1,0.0500,-63.03,13.52
125,416.9,0.0500,-62.20,9.00
126,421.7,0.0500,-62.62,17.91
127,426.6,0.0500,-63.10,16.12
128,431.5,0.0500,-62.99,11.45
129,436.5,0.0500,-63.68,15.24
130,441.6,0.0500,-62.98,9.96
131,446.7,0.0500,-62.28,17.04
132,451.9,0.0500,-62.70,14.11
133,457.1,0.0500,-62.37,16.36
134,462.4,0.0500,-61.95,13.44
135,467.7,0.0500,-62.49,13.68
136,473.2,0.0500,-62.35,11.95
137,478.6,0.0500,-62.29,18.84
138,484.2,0.0500,-61.78,9.28
139,489.8,0.0500,-62.63,13.47
140,495.5,0.0500,-63.05,15.29
141,501.2,0.0500,-62.13,18.04
142,507.0,0.0500,-63.17,18.94
143,512.9,0.0500,-62.51,18.95
144,518.8,0.0500,-62.19,17.97
145,524.8,0.0500,-62.69,11.32
146,530.9,0.0500,-61.65,23.60
147,537.0,0.0500,-62.65,19.60
148,543.3,0.0500,-63.24,9.84
149,549.5,0.0500,-63.29,19.43
150,555.9,0.0500,-61.69,18.27
151,562.3,0.0500,-62.26,20.92
152,568.9,0.0500,-62.33,11.18
153,575.4,0.0500,-63.31,13.72
154,582.1,0.0500,-61.75,19.29
155,588.8,0.0500,-62.79,15.39
156,595.7,0.0500,-62.73,17.52
157,602.6,0.0500,-62.07,17.39
158,609.5,0.0500,-61.86,19.15
159,616.6,0.0500,-62.61,16.38
160,623.7,0.0500,-61.86,17.02
161,631.0,0.0500,-62.78,14.58
162,638.3,0.0500,-61.76,22.11
163,645.7,0.0500,-62.41,20.83
164,653.1,0.0500,-62.14,18.94
165,660.7,0.0500,-61.43,26.16
166,668.3,0.0500,-62.20,19.83
167,676.1,0.0500,-62.42,15.77
168,683.9,0.0500,-62.23,24.40
169,691.8,0.0500,-61.44,18.33
170,699.8,0.0500,-62.25,22.33
171,707.9,0.0500,-62.84,27.96
172,716.1,0.0500,-62.18,19.94
173,724.4,0.0500,-62.08,19.17
174,732.8,0.0500,-61.97,21.56
175,741.3,0.0500,-61.75,17.70
176,749.9,0.0500,-61.92,20.10
177,758.6,0.0500,-62.67,20.08
178,767.4,0.0500,-60.52,26.28
179,776.2,0.0500,-62.61,21.33
180,785.2,0.0500,-63.29,26.40
181,794.3,0.0500,-60.66,22.16
182,803.5,0.0500,-62.14,20.89
183,812.8,0.0500,-61.84,28.01
184,822.2,0.0500,-61.13,26.32
185,831.8,0.0500,-61.53,20.75
186,841.4,0.0500,-61.30,25.48
187,851.1,0.0500,-61.59,24.98
188,861.0,0.0500,-61.55,23.49
189,871.0,0.0500,-62.46,26.10
190,881.0,0.0500,-61.33,25.04
191,891.3,0.0500,-61.20,24.25
192,901.6,0.0500,-61.79,27.90
193,912.0,0.0500,-61.94,24.31
194,922.6,0.0500,-61.96,19.78
195,933.3,0.0500,-61.41,25.19
196,944.1,0.0500,-62.02,27.40
197,955.0,0.0500,-60.95,22.53
198,966.1,0.0500,-61.09,29.20
199,977.2,0.0500,-62.84,27.24
200,988.6,0.0500,-61.55,33.35
201,1000.0,0.0500,-61.97,29.87
202,1011.6,0.0500,-61.30,30.91
203,1023.3,0.0500,-62.05,29.63
204,1035.1,0.0500,-62.03,28.37
205,1047.1,0.0500,-61.71,27.93
206,1059.3,0.0500,-61.47,30.56
207,1071.5,0.0500,-61.93,29.92
208,1083.9,0.0500,-61.38,34.58
209,1096.5,0.0500,-61.45,31.49
210,1109.2,0.0500,-60.42,27.66
211,1122.0,0.0500,-61.12,34.28
212,1135.0,0.0500,-61.62,32.70
213,1148.2,0.0500,-61.42,24.02
214,1161.4,0.0500,-61.91,31.78
215,1174.9,0.0500,-61.36,30.75
216,1188.5,0.0500,-60.98,31.13
217,1202.3,0.0500,-60.98,33.29
218,1216.2,0.0500,-60.88,33.31
219,1230.3,0.0500,-60.56,32.30
220,1244.5,0.0500,-61.44,35.75
221,1258.9,0.0500,-60.60,32.89
222,1273.5,0.0500,-61.59,36.04
223,1288.2,0.0500,-61.31,31.69
224,1303.2,0.0500,-61.03,33.31
225,1318.3,0.0500,-61.29,31.46
226,1333.5,0.0500,-60.45,32.03
227,1349.0,0.0500,-60.28,39.88
228,1364.6,0.0500,-60.83,36.61
229,1380.4,0.0500,-60.07,38.96
230,1396.4,0.0500,-59.75,35.66
231,1412.5,0.0500,-60.10,35.65
232,1428.9,0.0500,-60.68,40.05
233,1445.4,0.0500,-61.62,34.60
234,1462.2,0.0500,-61.12,34.45
235,1479.1,0.0500,-60.07,30.40
236,1496.2,0.0500,-60.98,39.36
237,1513.6,0.0500,-60.74,36.85
238,1531.1,0.0500,-59.97,26.49
239,1548.8,0.0500,-60.58,35.13
240,1566.8,0.0500,-60.65,37.88
241,1584.9,0.0500,-59.83,31.20
242,1603.2,0.0500,-58.71,40.84
243,1621.8,0.0500,-60.11,37.27
244,1640.6,0.0500,-59.29,44.54
245,1659.6,0.0500,-58.77,41.22
246,1678.8,0.0500,-60.60,30.89
247,1698.2,0.0500,-60.01,36.71
248,1717.9,0.0500,-59.85,41.91
249,1737.8,0.0500,-59.62,41.70
250,1757.9,0.0500,-58.89,48.76
251,1778.3,0.0500,-59.29,40.39
252,1798.9,0.0500,-58.94,39.06
253,1819.7,0.0500,-59.48,43.37
254,1840.8,0.0500,-60.45,47.15
255,1862.1,0.0500,-59.77,52.21
256,1883.6,0.0500,-58.77,42.76
257,1905.5,0.0500,-60.13,37.99
258,1927.5,0.0500,-59.79,51.41
259,1949.8,0.0500,-59.61,42.91
260,1972.4,0.0500,-59.68,43.00
261,1995.3,0.0500,-58.60,44.21
262,2018.4,0.0500,-58.78,45.06
263,2041.7,0.0500,-59.17,46.69
264,2065.4,0.0500,-59.65,42.01
265,2089.3,0.0500,-59.39,45.51
266,2113.5,0.0500,-59.17,48.96
267,2138.0,0.0500,-59.13,44.03
268,2162.7,0.0500,-58.77,47.09
269,2187.8,0.0500,-59.28,48.93
270,2213.1,0.0500,-58.79,46.37
271,2238.7,0.0500,-58.56,49.43
272,2264.6,0.0500,-57.92,49.68
273,2290.9,0.0500,-59.44,48.15
274,2317.4,0.0500,-59.04,45.19
275,2344.2,0.0500,-58.35,49.32
276,2371.4,0.0500,-58.29,49.73
277,2398.8,0.0500,-58.47,53.51
278,2426.6,0.0500,-57.56,48.91
279,2454.7,0.0500,-58.71,49.96
280,2483.1,0.0500,-57.61,52.23
281,2511.9,0.0500,-57.63,52.23
282,2541.0,0.0500,-57.91,53.71
283,2570.4,0.0500,-57.94,52.54
284,2600.2,0.0500,-58.01,49.07
285,2630.3,0.0500,-58.08,52.33
286,2660.7,0.0500,-57.51,46.44
287,2691.5,0.0500,-57.85,51.48
288,2722.7,0.0500,-57.26,60.29
289,2754.2,0.0500,-57.91,46.31
290,2786.1,0.0500,-57.14,49.75
291,2818.4,0.0500,-57.21,55.99
292,2851.0,0.0500,-57.62,55.36
293,2884.0,0.0500,-57.63,52.36
294,2917.4,0.0500,-56.94,53.94
295,2951.2,0.0500,-57.23,55.67
296,2985.4,0.0500,-57.69,58.00
297,3020.0,0.0500,-56.68,54.94
298,3054.9,0.0500,-56.90,54.79
299,3090.3,0.0500,-56.90,56.05
300,3126.1,0.0500,-56.82,55.33
301,3162.3,0.0500,-57.11,56.19
302,3198.9,0.0500,-56.42,52.97
303,3235.9,0.0500,-56.75,55.65
304,3273.4,0.0500,-56.27,55.40
305,3311.3,0.0500,-56.46,58.82
306,3349.7,0.0500,-56.41,58.39
307,3388.4,0.0500,-56.23,60.75
308,3427.7,0.0500,-56.09,59.44
309,3467.4,0.0500,-55.64,61.82
310,3507.5,0.0500,-55.63,56.78
311,3548.1,0.0500,-55.93,55.13
312,3589.2,0.0500,-56.53,56.75
313,3630.8,0.0500,-55.72,60.58
314,3672.8,0.0500,-55.21,59.06
315,3715.4,0.0500,-55.16,59.76
316,3758.4,0.0500,-55.78,57.21
317,3801.9,0.0500,-61.05,39.45
318,3845.9,0.0500,-55.16,60.20
319,3890.5,0.0500,-56.24,64.49
320,3935.5,0.0500,-54.80,65.71
321,3981.1,0.0500,-56.40,65.48
322,4027.2,0.0500,-55.00,62.35
323,4073.8,0.0500,-55.27,61.88
324,4121.0,0.0500,-55.22,61.54
325,4168.7,0.0500,-54.49,64.33
326,4217.0,0.0500,-54.60,62.77
327,4265.8,0.0500,-54.97,62.01
328,4315.2,0.0500,-54.62,62.28
329,4365.2,0.0500,-54.37,62.84
330,4415.7,0.0500,-54.50,62.73
331,4466.8,0.0500,-54.43,63.28
332,4518.6,0.0500,-54.24,65.06
333,4570.9,0.0500,-54.10,63.35
334,4623.8,0.0500,-54.18,62.71
335,4677.4,0.0500,-54.52,65.57
336,4731.5,0.0500,-54.11,62.53
337,4786.3,0.0500,-54.13,63.57
338,4841.7,0.0500,-54.00,63.40
339,4897.8,0.0500,-54.76,66.39
340,4954.5,0.0500,-53.92,67.64
341,5011.9,0.0500,-52.86,67.71
342,5069.9,0.0500,-53.44,65.11
343,5128.6,0.0500,-53.65,64.73
344,5188.0,0.0500,-53.54,65.88
345,5248.1,0.0500,-53.24,65.57
346,5308.8,0.0500,-52.78,66.11
347,5370.3,0.0500,-52.99,67.07
348,5432.5,0.0500,-52.99,64.21
349,5495.4,0.0500,-52.39,68.21
350,5559.0,0.0500,-53.25,61.45
351,5623.4,0.0500,-52.69,68.93
352,5688.5,0.0500,-52.56,66.84
353,5754.4,0.0500,-52.61,66.06
354,5821.0,0.0500,-52.71,64.13
355,5888.4,0.0500,-52.52,65.73
356,5956.6,0.0500,-53.10,65.59
357,6025.6,0.0500,-52.47,70.48
358,6095.4,0.0500,-52.73,66.83
359,6166.0,0.0500,-52.42,66.29
360,6237.3,0.0500,-51.66,66.67
361,6309.6,0.0500,-51.76,70.06
362,6382.6,0.0500,-51.81,68.72
363,6456.5,0.0500,-51.67,70.73
364,6531.3,0.0500,-51.68,68.65
365,6606.9,0.0500,-51.56,69.22
366,6683.4,0.0500,-51.40,70.36
367,6760.8,0.0500,-51.41,70.36
368,6839.1,0.0500,-51.46,67.34
369,6918.3,0.0500,-51.27,72.35
370,6998.4,0.0500,-51.25,67.17
371,7079.5,0.0500,-51.07,70.00
372,7161.4,0.0500,-51.17,71.25
373,7244.4,0.0500,-51.30,70.16
374,7328.2,0.0500,-50.60,68.93
375,7413.1,0.0500,-50.80,67.05
376,7498.9,0.0500,-50.63,71.99
377,7585.8,0.0500,-50.16,70.12
378,7673.6,0.0500,-50.16,71.75
379,7762.5,0.0500,-50.33,71.08
380,7852.4,0.0500,-50.18,70.44
381,7943.3,0.0500,-50.14,69.66
382,8035.3,0.0500,-50.29,72.10
383,8128.3,0.0500,-50.22,70.95
384,8222.4,0.0500,-49.87,71.06
385,8317.6,0.0500,-50.02,72.42
386,8414.0,0.0500,-49.82,73.55
387,8511.4,0.0500,-49.77,72.21
388,8609.9,0.0500,-49.58,72.23
389,8709.6,0.0500,-49.35,71.84
390,8810.5,0.0500,-49.47,72.35
391,8912.5,0.0500,-49.36,73.86
392,9015.7,0.0500,-49.19,76.16
393,9120.1,0.0500,-49.06,73.19
394,9225.7,0.0500,-49.02,74.73
395,9332.5,0.0500,-48.98,72.91
396,9440.6,0.0500,-48.75,73.33
397,9549.9,0.0500,-48.80,72.13
398,9660.5,0.0500,-48.93,72.93
399,9772.4,0.0500,-48.41,74.17
400,9885.5,0.0500,-48.61,74.85
401,10000.0,0.0500,-48.29,74.41
402,10115.8,0.0500,-48.13,74.18
403,10232.9,0.0500,-48.13,75.75
404,10351.4,0.0500,-48.02,74.15
405,10471.3,0.0500,-47.93,74.72
406,10592.5,0.0500,-47.96,73.37
407,10715.2,0.0500,-47.77,74.09
408,10839.3,0.0500,-47.74,74.58
409,10964.8,0.0500,-47.71,74.86
410,11091.7,0.0500,-47.50,75.21
411,11220.2,0.0500,-47.55,75.43
412,11350.1,0.0500,-47.26,74.78
413,11481.5,0.0500,-47.18,75.48
414,11614.5,0.0500,-47.10,76.09
415,11749.0,0.0500,-47.25,75.17
416,11885.0,0.0500,-46.93,75.70
417,12022.6,0.0500,-46.96,74.39
418,12161.9,0.0500,-46.91,75.11
419,12302.7,0.0500,-46.84,75.81
420,12445.1,0.0500,-46.61,76.36
421,12589.3,0.0500,-46.50,75.49
422,12735.0,0.0500,-46.57,75.91
423,12882.5,0.0500,-46.44,76.31
424,13031.7,0.0500,-46.42,76.65
425,13182.6,0.0500,-46.22,77.46
426,13335.2,0.0500,-46.19,76.43
427,13489.6,0.0500,-45.75,76.81
428,13645.8,0.0500,-45.92,76.37
429,13803.8,0.0500,-45.62,73.67
430,13963.7,0.0500,-45.84,76.16
431,14125.4,0.0500,-45.67,77.20
432,14288.9,0.0500,-45.42,76.66
433,14454.4,0.0500,-45.17,76.76
434,14621.8,0.0500,-45.32,77.24
435,14791.1,0.0500,-45.22,76.91
436,14962.4,0.0500,-45.13,76.79
437,15135.6,0.0500,-45.11,78.20
438,15310.9,0.0500,-44.90,76.95
439,15488.2,0.0500,-45.01,76.01
440,15667.5,0.0500,-44.88,77.63
441,15848.9,0.0500,-44.71,76.98
442,16032.5,0.0500,-44.65,76.82
443,16218.1,0.0500,-44.44,78.87
444,16405.9,0.0500,-44.39,77.97
445,16595.9,0.0500,-44.32,77.26
446,16788.0,0.0500,-44.20,77.77
447,16982.4,0.0500,-44.16,77.57
448,17179.1,0.0500,-43.96,78.10
449,17378.0,0.0500,-43.96,77.78
450,17579.2,0.0500,-43.93,78.18
451,17782.8,0.0500,-43.88,77.25
452,17988.7,0.0500,-43.88,78.92
453,18197.0,0.0500,-43.70,78.70
454,18407.7,0.0500,-43.52,77.89
455,18620.9,0.0500,-43.49,78.00
456,18836.5,0.0500,-43.26,78.43
457,19054.6,0.0500,-43.33,76.64
458,19275.2,0.0500,-43.06,78.04
459,19498.4,0.0500,-43.13,77.88
460,19724.2,0.0500,-42.92,78.01
461,19952.6,0.0500,-42.84,78.20
462,20183.7,0.0500,-42.72,79.17
463,20417.4,0.0500,-42.67,78.04
464,20653.8,0.0500,-42.63,78.38
465,20893.0,0.0500,-42.50,78.39
466,21134.9,0.0500,-42.34,78.31
467,21379.6,0.0500,-42.39,78.45
468,21627.2,0.0500,-42.22,78.73
469,21877.6,0.0500,-42.14,78.75
470,22130.9,0.0500,-42.06,78.40
471,22387.2,0.0500,-41.97,78.81
472,22646.4,0.0500,-41.81,78.96
473,22908.7,0.0500,-41.70,78.50
474,23173.9,0.0500,-41.61,78.90
475,23442.3,0.0500,-41.58,79.39
476,23713.7,0.0500,-41.48,79.11
477,23988.3,0.0500,-41.54,79.00
478,24266.1,0.0500,-41.23,79.57
479,24547.1,0.0500,-41.17,78.93
480,24831.3,0.0500,-41.12,79.05
481,25118.9,0.0500,-41.03,78.78
482,25409.7,0.0500,-40.91,78.93
483,25704.0,0.0500,-40.76,78.86
484,26001.6,0.0500,-40.70,79.78
485,26302.7,0.0500,-40.54,79.42
486,26607.3,0.0500,-40.52,78.96
487,26915.3,0.0500,-40.35,79.54
488,27227.0,0.0500,-40.36,79.52
489,27542.3,0.0500,-40.24,79.72
490,27861.2,0.0500,-40.01,79.65
491,28183.8,0.0500,-40.01,79.25
492,28510.2,0.0500,-39.97,79.40
493,28840.3,0.0500,-39.80,79.68
494,29174.3,0.0500,-39.78,79.27
495,29512.1,0.0500,-39.73,79.54
496,29853.8,0.0500,-39.54,79.54
497,30199.5,0.0500,-39.52,79.85
498,30549.2,0.0500,-39.39,79.73
499,30903.0,0.0500,-39.27,79.62
500,31260.8,0.0500,-39.26,79.29
501,31622.8,0.0500,-39.15,79.60
502,31989.0,0.0500,-39.05,79.64
503,32359.4,0.0500,-39.01,79.56
504,32734.1,0.0500,-38.83,80.04
505,33113.1,0.0500,-38.71,79.78
506,33496.5,0.0500,-38.69,79.84
507,33884.4,0.0500,-38.55,80.26
508,34276.8,0.0500,-38.48,79.92
509,34673.7,0.0500,-38.37,80.18
510,35075.2,0.0500,-38.25,80.08
511,35481.3,0.0500,-38.20,79.65
512,35892.2,0.0500,-38.14,80.11
513,36307.8,0.0500,-38.06,80.05
514,36728.2,0.0500,-37.88,79.92
515,37153.5,0.0500,-37.81,80.20
516,37583.7,0.0500,-37.72,80.46
517,38018.9,0.0500,-37.63,79.49
518,38459.2,0.0500,-37.48,80.00
519,38904.5,0.0500,-37.38,80.18
520,39355.0,0.0500,-37.31,79.96
521,39810.7,0.0500,-37.19,79.54
522,40271.7,0.0500,-37.18,80.40
523,40738.0,0.0500,-37.05,80.24
524,41209.8,0.0500,-36.98,80.03
525,41686.9,0.0500,-36.92,80.26
526,42169.7,0.0500,-36.92,80.55
527,42658.0,0.0500,-36.59,80.16
528,43151.9,0.0500,-36.53,80.15
529,43651.6,0.0500,-36.50,80.45
530,44157.0,0.0500,-36.41,80.09
531,44668.4,0.0500,-36.32,80.34
532,45185.6,0.0500,-36.20,80.08
533,45708.8,0.0500,-36.07,80.10
534,46238.1,0.0500,-35.96,80.25
535,46773.5,0.0500,-35.91,80.41
536,47315.1,0.0500,-35.87,80.34
537,47863.0,0.0500,-35.74,80.50
538,48417.2,0.0500,-35.58,80.41
539,48977.9,0.0500,-35.52,80.35
540,49545.0,0.0500,-35.36,79.95
541,50118.7,0.0500,-35.26,80.66
542,50699.1,0.0500,-35.21,80.23
543,51286.1,0.0500,-35.12,79.96
544,51880.0,0.0500,-35.04,80.11
545,52480.7,0.0500,-34.89,80.44
546,53088.4,0.0500,-34.81,79.73
547,53703.2,0.0500,-34.71,80.24
548,54325.0,0.0500,-34.61,79.89
549,54954.1,0.0500,-34.50,80.16
550,55590.4,0.0500,-34.40,80.26
551,56234.1,0.0500,-34.36,80.11
552,56885.3,0.0500,-34.17,80.14
553,57544.0,0.0500,-34.19,80.18
554,58210.3,0.0500,-34.05,80.23
555,58884.4,0.0500,-34.02,79.94
556,59566.2,0.0500,-33.83,79.72
557,60256.0,0.0500,-33.74,80.38
558,60953.7,0.0500,-33.74,80.19
559,61659.5,0.0500,-33.53,80.05
560,62373.5,0.0500,-33.46,80.21
561,63095.7,0.0500,-33.47,79.32
562,63826.3,0.0500,-33.28,80.52
563,64565.4,0.0500,-33.19,80.08
564,65313.1,0.0500,-33.18,79.91
565,66069.3,0.0500,-33.00,79.59
566,66834.4,0.0500,-32.91,79.87
567,67608.3,0.0500,-32.73,79.68
568,68391.2,0.0500,-32.68,79.68
569,69183.1,0.0500,-32.70,79.67
570,69984.2,0.0500,-32.50,79.75
571,70794.6,0.0500,-32.52,79.68
572,71614.3,0.0500,-32.36,79.66
573,72443.6,0.0500,-32.21,79.60
574,73282.5,0.0500,-32.04,79.76
575,74131.0,0.0500,-32.05,79.58
576,74989.4,0.0500,-31.94,79.70
577,75857.8,0.0500,-31.91,79.68
578,76736.1,0.0500,-31.75,79.61
579,77624.7,0.0500,-31.62,79.93
580,78523.6,0.0500,-31.47,79.57
581,79432.8,0.0500,-31.43,79.70
582,80352.6,0.0500,-31.30,79.80
583,81283.1,0.0500,-31.21,79.52
584,82224.3,0.0500,-31.14,79.73
585,83176.4,0.0500,-31.03,79.79
586,84139.5,0.0500,-30.90,79.84
587,85113.8,0.0500,-30.87,79.78
588,86099.4,0.0500,-30.74,79.97
589,87096.4,0.0500,-30.64,78.95
590,88104.9,0.0500,-30.55,79.42
591,89125.1,0.0500,-30.44,79.56
592,90157.1,0.0500,-30.27,79.56
593,91201.1,0.0500,-30.21,79.94
594,92257.1,0.0500,-30.17,79.65
595,93325.4,0.0500,-30.09,79.49
596,94406.1,0.0500,-30.00,79.36
597,95499.3,0.0500,-29.81,79.38
598,96605.1,0.0500,-29.63,79.41
599,97723.7,0.0500,-29.59,79.37
600,98855.3,0.0500,-29.55,79.29
601,100000.0,0.0500,-29.36,79.47
602,101157.9,0.0500,-29.39,78.98
603,102329.3,0.0500,-29.24,79.34
604,103514.2,0.0500,-29.17,79.14
605,104712.9,0.0500,-28.92,79.15
606,105925.4,0.0500,-28.79,79.06
607,107151.9,0.0500,-28.77,79.28
608,108392.7,0.0500,-28.71,79.35
609,109647.8,0.0500,-28.54,78.90
610,110917.5,0.0500,-28.47,78.74
611,112201.8,0.0500,-28.34,79.03
612,113501.1,0.0500,-28.30,78.78
613,114815.4,0.0500,-28.09,79.13
614,116144.9,0.0500,-28.05,78.88
615,117489.8,0.0500,-27.88,78.71
616,118850.2,0.0500,-27.80,78.70
617,120226.4,0.0500,-27.68,78.80
618,121618.6,0.0500,-27.53,78.75
619,123026.9,0.0500,-27.41,78.73
620,124451.5,0.0500,-27.25,78.17
621,125892.5,0.0500,-27.22,78.96
622,127350.3,0.0500,-27.10,78.38
623,128825.0,0.0500,-27.07,78.13
624,130316.7,0.0500,-26.94,78.84
625,131825.7,0.0500,-26.79,78.46
626,133352.1,0.0500,-26.67,78.04
627,134896.3,0.0500,-26.41,78.13
628,136458.3,0.0500,-26.52,78.24
629,138038.4,0.0500,-26.31,77.97
630,139636.8,0.0500,-26.15,78.06
631,141253.8,0.0500,-26.11,77.93
632,142889.4,0.0500,-26.03,78.12
633,144544.0,0.0500,-25.82,78.17
634,146217.7,0.0500,-25.81,77.35
635,147910.8,0.0500,-25.69,77.40
636,149623.6,0.0500,-25.51,77.80
637,151356.1,0.0500,-25.38,77.72
638,153108.7,0.0500,-25.24,77.47
639,154881.7,0.0500,-25.13,77.27
640,156675.1,0.0500,-25.00,77.31
641,158489.3,0.0500,-24.88,77.16
642,160324.5,0.0500,-24.80,75.07
643,162181.0,0.0500,-24.66,76.98
644,164059.0,0.0500,-24.64,76.78
645,165958.7,0.0500,-24.39,77.13
646,167880.4,0.0500,-24.23,76.79
647,169824.4,0.0500,-24.25,78.60
648,171790.8,0.0500,-23.97,76.65
649,173780.1,0.0500,-23.87,76.37
650,175792.4,0.0500,-23.77,76.30
651,177827.9,0.0500,-23.64,77.29
652,179887.1,0.0500,-23.24,78.58
653,181970.1,0.0500,-23.36,76.13
654,184077.2,0.0500,-23.27,75.63
655,186208.7,0.0500,-23.20,75.60
656,188364.9,0.0500,-22.99,75.51
657,190546.1,0.0500,-22.85,75.29
658,192752.5,0.0500,-22.36,73.56
659,194984.5,0.0500,-22.44,74.21
660,197242.3,0.0500,-22.36,75.18
661,199526.2,0.0500,-22.28,74.71
662,201836.6,0.0500,-22.05,73.46
663,204173.8,0.0500,-22.10,74.18
664,206538.0,0.0500,-21.83,74.42
665,208929.6,0.0500,-21.75,72.38
666,211348.9,0.0500,-21.48,74.11
667,213796.2,0.0500,-21.39,73.45
668,216271.9,0.0500,-21.27,73.18
669,218776.2,0.0500,-21.07,73.68
670,221309.5,0.0500,-20.89,73.40
671,223872.1,0.0500,-20.82,73.08
672,226464.4,0.0500,-20.66,72.70
673,229086.8,0.0500,-20.48,72.49
674,231739.5,0.0500,-20.32,72.45
675,234422.9,0.0500,-20.13,71.47
676,237137.4,0.0500,-20.19,71.28
677,239883.3,0.0500,-19.88,71.63
678,242661.0,0.0500,-19.65,72.24
679,245470.9,0.0500,-19.50,71.15
680,248313.3,0.0500,-19.32,70.65
681,251188.6,0.0500,-19.14,70.53
682,254097.3,0.0500,-18.96,70.16
683,257039.6,0.0500,-18.80,67.60
684,260016.0,0.0500,-18.58,69.53
685,263026.8,0.0500,-18.31,69.12
686,266072.5,0.0500,-18.24,68.78
687,269153.5,0.0500,-18.02,68.53
688,272270.1,0.0500,-17.86,67.98
689,275422.9,0.0500,-17.65,67.81
690,278612.1,0.0500,-17.46,67.54
691,281838.3,0.0500,-17.24,67.09
692,285101.8,0.0500,-17.01,66.49
693,288403.2,0.0500,-16.84,65.87
694,291742.7,0.0500,-16.69,64.99
695,295120.9,0.0500,-16.38,65.15
696,298538.3,0.0500,-16.21,64.39
697,301995.2,0.0500,-15.94,64.03
698,305492.1,0.0500,-15.78,63.65
699,309029.5,0.0500,-15.51,62.80
700,312607.9,0.0500,-15.22,62.20
701,316227.8,0.0500,-15.03,61.51
702,319889.5,0.0500,-14.79,60.42
703,323593.7,0.0500,-14.62,59.87
704,327340.7,0.0500,-14.31,58.85
705,331131.1,0.0500,-13.99,55.71
706,334965.4,0.0500,-13.71,57.24
707,338844.2,0.0500,-13.28,55.00
708,342767.8,0.0500,-13.16,55.28
709,346736.9,0.0500,-12.76,53.47
710,350751.9,0.0500,-12.56,53.42
711,354813.4,0.0500,-12.26,51.71
712,358921.9,0.0500,-12.01,50.40
713,363078.1,0.0500,-11.76,49.07
714,367282.3,0.0500,-11.37,47.26
715,371535.2,0.0500,-11.05,45.77
716,375837.4,0.0500,-10.65,45.24
717,380189.4,0.0500,-10.42,42.20
718,384591.8,0.0500,-10.05,39.99
719,389045.1,0.0500,-9.75,37.74
720,393550.1,0.0500,-9.23,35.54
721,398107.2,0.0500,-9.17,32.48
722,402717.0,0.0500,-8.79,29.72
723,407380.3,0.0500,-8.51,26.44
724,412097.5,0.0500,-8.28,24.96
725,416869.4,0.0500,-7.96,20.31
726,421696.5,0.0500,-7.70,16.59
727,426579.5,0.0500,-7.46,12.52
728,431519.1,0.0500,-7.33,8.45
729,436515.8,0.0500,-7.19,4.37
730,441570.4,0.0500,-7.11,-0.04
731,446683.6,0.0500,-7.06,-4.15
732,451855.9,0.0500,-7.14,-7.88
733,457088.2,0.0500,-7.12,-13.16
734,462381.0,0.0500,-7.23,-17.73
735,467735.1,0.0500,-7.43,-21.65
736,473151.3,0.0500,-7.57,-25.10
737,478630.1,0.0500,-7.82,-29.49
738,484172.4,0.0500,-8.08,-33.13
739,489778.8,0.0500,-8.38,-36.60
740,495450.2,0.0500,-8.68,-39.57
741,501187.2,0.0500,-9.15,-42.37
742,506990.7,0.0500,-9.14,-46.59
743,512861.4,0.0500,-9.71,-47.93
744,518800.0,0.0500,-9.89,-50.49
745,524807.5,0.0500,-10.43,-52.74
746,530884.4,0.0500,-10.64,-55.28
747,537031.8,0.0500,-11.29,-57.60
748,543250.3,0.0500,-11.39,-58.20
749,549540.9,0.0500,-11.86,-59.36
750,555904.3,0.0500,-12.14,-61.90
751,562341.3,0.0500,-12.49,-63.19
752,568852.9,0.0500,-12.85,-64.29
753,575439.9,0.0500,-13.19,-65.96
754,582103.2,0.0500,-13.50,-67.05
755,588843.7,0.0500,-13.58,-67.24
756,595662.1,0.0500,-13.48,-63.19
757,602559.6,0.0500,-14.24,-69.62
758,609536.9,0.0500,-14.51,-67.84
759,616595.0,0.0500,-15.06,-71.62
760,623734.8,0.0500,-15.24,-72.63
761,630957.3,0.0500,-15.54,-72.56
762,638263.5,0.0500,-15.83,-74.85
763,645654.2,0.0500,-16.20,-74.86
764,653130.6,0.0500,-16.32,-74.62
765,660693.4,0.0500,-16.74,-76.26
766,668343.9,0.0500,-16.67,-77.34
767,676083.0,0.0500,-17.36,-75.50
768,683911.6,0.0500,-17.58,-78.66
769,691831.0,0.0500,-17.49,-74.37
770,699842.0,0.0500,-17.84,-77.71
771,707945.8,0.0500,-19.02,-79.54
772,716143.4,0.0500,-18.89,-77.08
773,724436.0,0.0500,-18.92,-79.15
774,732824.5,0.0500,-19.15,-78.73
775,741310.2,0.0500,-19.30,-81.27
776,749894.2,0.0500,-19.46,-73.35
777,758577.6,0.0500,-19.90,-79.46
778,767361.5,0.0500,-20.29,-80.48
779,776247.1,0.0500,-20.83,-84.07
780,785235.6,0.0500,-20.75,-81.04
781,794328.2,0.0500,-20.95,-80.06
782,803526.1,0.0500,-20.99,-79.25
783,812830.5,0.0500,-21.44,-79.82
784,822242.6,0.0500,-21.63,-78.91
785,831763.8,0.0500,-20.50,-82.56
786,841395.1,0.0500,-22.90,-74.24
787,851138.0,0.0500,-22.42,-76.52
788,860993.8,0.0500,-23.60,-75.68
789,870963.6,0.0500,-23.20,-74.65
790,881048.9,0.0500,-23.02,-69.80
791,891250.9,0.0500,-23.70,-70.51
792,901571.1,0.0500,-23.15,-65.53
793,912010.8,0.0500,-23.83,-64.54
794,922571.4,0.0500,-23.51,-59.33
795,933254.3,0.0500,-23.67,-60.35
796,944060.9,0.0500,-23.03,-56.96
797,954992.6,0.0500,-22.46,-63.75
798,966050.9,0.0500,-21.93,-59.00
799,977237.2,0.0500,-21.74,-60.90
800,988553.1,0.0500,-21.20,-56.59
801,1000000.0,0.0500,-21.23,-63.18
802,1011579.5,0.0500,-20.50,-64.59
803,1023293.0,0.0500,-20.24,-73.82
804,1035142.2,0.0500,-20.69,-71.84
805,1047128.5,0.0500,-20.69,-70.76
806,1059253.7,0.0500,-21.34,-74.87
807,1071519.3,0.0500,-21.44,-79.76
808,1083926.9,0.0500,-20.52,-75.79
809,1096478.2,0.0500,-22.25,-76.16
810,1109174.8,0.0500,-22.32,-80.37
811,1122018.5,0.0500,-21.03,-85.95
812,1135010.8,0.0500,-20.69,-89.07
813,1148153.6,0.0500,-22.02,-85.46
814,1161448.6,0.0500,-21.88,-87.52
815,1174897.6,0.0500,-21.88,-87.35
816,1188502.2,0.0500,-22.12,-87.78
817,1202264.4,0.0500,-22.78,-93.17
818,1216186.0,0.0500,-23.48,-85.42
819,1230268.8,0.0500,-23.35,-84.07
820,1244514.6,0.0500,-23.91,-89.81
821,1258925.4,0.0500,-22.98,-98.01
822,1273503.1,0.0500,-26.70,-81.44
823,1288249.6,0.0500,-24.21,-88.95
824,1303166.8,0.0500,-23.99,-90.33
825,1318256.7,0.0500,-24.59,-95.52
826,1333521.4,0.0500,-24.37,-84.62
827,1348962.9,0.0500,-23.86,-97.08
828,1364583.1,0.0500,-24.59,-90.20
829,1380384.3,0.0500,-24.06,-95.25
830,1396368.4,0.0500,-25.05,-89.15
831,1412537.5,0.0500,-25.78,-91.13
832,1428894.0,0.0500,-24.89,-92.16
833,1445439.8,0.0500,-25.55,-96.82
834,1462177.2,0.0500,-24.62,-92.15
835,1479108.4,0.0500,-25.48,-97.96
836,1496235.7,0.0500,-25.27,-96.13
837,1513561.2,0.0500,-25.95,-100.00
838,1531087.5,0.0500,-26.73,-102.96
839,1548816.6,0.0500,-26.44,-97.19
840,1566751.1,0.0500,-25.93,-105.22
841,1584893.2,0.0500,-27.27,-84.06
842,1603245.4,0.0500,-26.70,-99.85
843,1621810.1,0.0500,-28.21,-134.64
844,1640589.8,0.0500,-24.92,-99.68
845,1659586.9,0.0500,-27.58,-111.85
846,1678804.0,0.0500,-28.03,-108.71
847,1698243.7,0.0500,-26.18,-111.18
848,1717908.4,0.0500,-32.11,-79.39
849,1737800.8,0.0500,-27.69,-98.78
850,1757923.6,0.0500,-28.56,-112.55
851,1778279.4,0.0500,-26.27,-112.69
852,1798870.9,0.0500,-26.82,-121.27
853,1819700.9,0.0500,-32.31,-127.38
854,1840772.0,0.0500,-30.71,-102.60
855,1862087.1,0.0500,-30.05,-107.43
856,1883649.1,0.0500,-30.00,-112.23
857,1905460.7,0.0500,-31.80,-124.06
858,1927524.9,0.0500,-31.52,-91.26
859,1949844.6,0.0500,-34.29,-125.33
860,1972422.7,0.0500,-34.37,-74.79
861,1995262.3,0.0500,-35.03,-107.08
862,2018366.4,0.0500,-37.89,-91.69
863,2041737.9,0.0500,-30.31,-40.31
864,2065380.2,0.0500,-34.05,-6.45
865,2089296.1,0.0500,-33.88,-51.39
866,2113489.0,0.0500,-28.34,-57.78
867,2137962.1,0.0500,-29.26,-64.10
868,2162718.5,0.0500,-29.88,-64.87
869,2187761.6,0.0500,-32.77,-64.64
870,2213094.7,0.0500,-29.49,-76.45
871,2238721.1,0.0500,-29.01,-82.16
872,2264644.3,0.0500,-31.78,-88.24
873,2290867.7,0.0500,-30.25,-82.84
874,2317394.6,0.0500,-28.79,-76.39
875,2344228.8,0.0500,-22.56,-97.01
876,2371373.7,0.0500,-27.06,-83.44
877,2398832.9,0.0500,-29.02,-89.50
878,2426610.1,0.0500,-30.68,-97.42
879,2454708.9,0.0500,-28.73,-130.14
880,2483133.1,0.0500,-31.98,-98.42
881,2511886.4,0.0500,-32.72,-97.84
882,2540972.7,0.0500,-31.94,-96.49
883,2570395.8,0.0500,-31.34,-85.79
884,2600159.6,0.0500,-26.91,-169.62
885,2630268.0,0.0500,-30.71,-130.53
886,2660725.1,0.0500,-33.84,-110.09
887,2691534.8,0.0500,-33.09,-119.13
888,2722701.3,0.0500,-32.29,-104.16
889,2754228.7,0.0500,-33.71,-96.15
890,2786121.2,0.0500,-32.39,-116.42
891,2818382.9,0.0500,-33.33,-93.07
892,2851018.3,0.0500,-37.53,-71.07
893,2884031.5,0.0500,-37.35,-125.05
894,2917427.0,0.0500,-35.84,-99.24
895,2951209.2,0.0500,-33.90,-77.23
896,2985382.6,0.0500,-38.30,-105.07
897,3019951.7,0.0500,-36.29,-97.66
898,3054921.1,0.0500,-34.64,-2.80
899,3090295.4,0.0500,-32.47,-82.85
900,3126079.4,0.0500,-40.80,-107.66
901,3162277.7,0.0500,-33.00,-77.30
902,3198895.1,0.0500,-37.55,-65.36
903,3235936.6,0.0500,-32.43,-105.49
904,3273406.9,0.0500,-30.56,-85.11
905,3311311.2,0.0500,-28.71,-88.87
906,3349654.4,0.0500,-32.89,-99.70
907,3388441.6,0.0500,-32.49,-106.30
908,3427677.9,0.0500,-33.66,-99.77
909,3467368.5,0.0500,-34.27,-99.75
910,3507518.7,0.0500,-29.31,-147.05
911,3548133.9,0.0500,-33.13,-108.26
912,3589219.3,0.0500,-30.91,-84.34
913,3630780.5,0.0500,-35.87,-86.32
914,3672823.0,0.0500,-33.63,-105.99
915,3715352.3,0.0500,-34.81,-55.42
916,3758374.0,0.0500,-26.33,-135.96
917,3801894.0,0.0500,-35.31,-96.67
918,3845917.8,0.0500,-36.72,-91.32
919,3890451.4,0.0500,-22.73,10.02
920,3935500.8,0.0500,-37.87,-94.12
921,3981071.7,0.0500,-34.78,-104.72
922,4027170.3,0.0500,-30.28,-102.73
923,4073802.8,0.0500,-37.98,-85.79
924,4120975.2,0.0500,-33.41,-81.84
925,4168693.8,0.0500,-34.59,-84.58
926,4216965.0,0.0500,-33.90,-93.28
927,4265795.2,0.0500,-35.62,-137.00
928,4315190.8,0.0500,-34.67,-84.49
929,4365158.3,0.0500,-35.91,-116.11
930,4415704.5,0.0500,-38.20,-107.38
931,4466835.9,0.0500,-36.60,-93.27
932,4518559.4,0.0500,-38.06,-90.62
933,4570881.9,0.0500,-35.70,-127.30
934,4623810.2,0.0500,-34.90,-116.89
935,4677351.4,0.0500,-36.61,-92.61
936,4731512.6,0.0500,-47.02,-115.73
937,4786300.9,0.0500,-38.32,-121.79
938,4841723.7,0.0500,-41.93,-127.48
939,4897788.2,0.0500,-39.52,-74.69
940,4954501.9,0.0500,-38.29,-88.74
941,5011872.3,0.0500,-38.03,-103.30
942,5069907.1,0.0500,-38.35,-115.38
943,5128613.8,0.0500,-40.73,-102.76
944,5188000.4,0.0500,-37.80,-88.58
945,5248074.6,0.0500,-37.45,-89.86
946,5308844.4,0.0500,-39.81,-112.11
947,5370318.0,0.0500,-40.53,-124.46
948,5432503.3,0.0500,-35.29,-110.35
949,5495408.7,0.0500,-40.59,-84.74
950,5559042.6,0.0500,-45.28,-141.13
951,5623413.3,0.0500,-39.04,-120.09
952,5688529.3,0.0500,-39.49,-93.25
953,5754399.4,0.0500,-38.46,-117.98
954,5821032.2,0.0500,-40.82,-147.16
955,5888436.6,0.0500,-49.61,-99.24
956,5956621.4,0.0500,-36.70,-91.39
957,6025595.9,0.0500,-42.27,-110.89
958,6095369.0,0.0500,-35.86,-4.50
959,6165950.0,0.0500,-37.20,-92.31
960,6237348.4,0.0500,-44.06,-109.07
961,6309573.4,0.0500,-39.23,-137.07
962,6382634.9,0.0500,-39.87,-54.22
963,6456542.3,0.0500,-42.05,-99.61
964,6531305.5,0.0500,-39.23,-43.78
965,6606934.5,0.0500,-41.22,-163.04
966,6683439.2,0.0500,-38.50,-132.91
967,6760829.8,0.0500,-38.56,-168.27
968,6839116.5,0.0500,-38.62,-107.27
969,6918309.7,0.0500,-34.67,-112.09
970,6998420.0,0.0500,-35.73,139.78
971,7079457.8,0.0500,-41.10,113.64
972,7161434.1,0.0500,-37.96,-5.45
973,7244359.6,0.0500,-30.02,-83.26
974,7328245.3,0.0500,-43.52,84.02
975,7413102.4,0.0500,-34.73,-160.89
976,7498942.1,0.0500,-37.34,-16.29
977,7585775.8,0.0500,-34.75,-83.27
978,7673614.9,0.0500,-38.78,35.67
979,7762471.2,0.0500,-35.78,-8.25
980,7852356.3,0.0500,-36.90,-96.12
981,7943282.3,0.0500,-36.56,-106.70
982,8035261.2,0.0500,-40.31,-105.84
983,8128305.2,0.0500,-44.49,-41.17
984,8222426.5,0.0500,-47.80,-156.90
985,8317637.7,0.0500,-42.67,-151.87
986,8413951.4,0.0500,-41.00,-84.54
987,8511380.4,0.0500,-41.48,-120.54
988,8609937.5,0.0500,-42.75,-117.00
989,8709635.9,0.0500,-40.73,-25.74
990,8810488.7,0.0500,-40.12,-82.91
991,8912509.4,0.0500,-45.77,-65.83
992,9015711.4,0.0500,-43.45,-81.74
993,9120108.4,0.0500,-40.07,-62.49
994,9225714.3,0.0500,-49.86,-61.27
995,9332543.0,0.0500,-49.74,-99.32
996,9440608.8,0.0500,-40.25,-98.21
997,9549925.9,0.0500,-40.32,-71.57
998,9660508.8,0.0500,-48.74,-149.13
999,9772372.2,0.0500,-42.39,-125.67
1000,9885530.9,0.0500,-43.22,-50.78
1001,10000000.0,0.0500,-43.94,-78.56
