#, Frequency (Hz), Amplitude (Vpp), Gain (dB), Phase (°)
1,100.0,0.0500,-67.30,5.58
2,101.2,0.0500,-68.07,-2.03
3,102.3,0.0500,-68.55,5.43
4,103.5,0.0500,-70.70,-22.90
5,104.7,0.0500,-68.81,2.27
6,105.9,0.0500,-70.54,-6.25
7,107.2,0.0500,-67.63,-7.28
8,108.4,0.0500,-67.63,-7.88
9,109.6,0.0500,-67.89,-2.10
10,110.9,0.0500,-67.81,-0.69
11,112.2,0.0500,-69.82,-6.14
12,113.5,0.0500,-67.14,-5.74
13,114.8,0.0500,-67.24,-1.32
14,116.1,0.0500,-68.58,4.74
15,117.5,0.0500,-67.15,3.54
16,118.9,0.0500,-66.93,-4.85
17,120.2,0.0500,-69.42,-7.21
18,121.6,0.0500,-68.63,1.63
19,123.0,0.0500,-68.31,3.51
20,124.5,0.0500,-68.89,0.62
21,125.9,0.0500,-69.67,-2.00
22,127.4,0.0500,-69.13,-0.64
23,128.8,0.0500,-68.42,-8.37
24,130.3,0.0500,-69.88,4.70
25,131.8,0.0500,-68.01,3.16
26,133.4,0.0500,-67.91,1.67
27,134.9,0.0500,-67.32,2.03
28,136.5,0.0500,-68.40,-12.21
29,138.0,0.0500,-68.78,-0.45
30,139.6,0.0500,-67.93,10.47
31,141.3,0.0500,-67.41,1.70
32,142.9,0.0500,-67.12,-5.59
33,144.5,0.0500,-69.27,3.57
34,146.2,0.0500,-67.32,5.53
35,147.9,0.0500,-68.66,4.70
36,149.6,0.0500,-68.41,1.89
37,151.4,0.0500,-69.51,-5.24
38,153.1,0.0500,-68.01,-8.04
39,154.9,0.0500,-67.32,11.88
40,156.7,0.0500,-68.88,0.68
41,158.5,0.0500,-68.74,0.69
42,160.3,0.0500,-67.44,0.75
43,162.2,0.0500,-69.19,-6.35
44,164.1,0.0500,-67.78,1.97
45,166.0,0.0500,-68.70,7.47
46,167.9,0.0500,-67.97,5.02
47,169.8,0.0500,-67.56,1.67
48,171.8,0.0500,-67.30,-3.82
49,173.8,0.0500,-68.97,7.45
50,175.8,0.0500,-67.99,-0.74
51,177.8,0.0500,-68.44,7.11
52,179.9,0.0500,-67.06,-3.51
53,182.0,0.0500,-66.98,-6.10
54,184.1,0.0500,-68.66,4.12
55,186.2,0.0500,-66.47,-0.36
56,188.4,0.0500,-69.44,-8.82
57,190.5,0.0500,-68.08,-7.20
58,192.8,0.0500,-66.96,-2.18
59,195.0,0.0500,-68.06,-4.99
60,197.2,0.0500,-68.06,-12.42
61,199.5,0.0500,-68.26,-5.30
62,201.8,0.0500,-68.65,-3.68
63,204.2,0.0500,-68.13,2.59
64,206.5,0.0500,-68.21,-5.17
65,208.9,0.0500,-68.01,-1.98
66,211.3,0.0500,-68.08,6.29
67,213.8,0.0500,-67.96,5.17
68,216.3,0.0500,-68.38,4.78
69,218.8,0.0500,-68.76,13.29
70,221.3,0.0500,-69.41,-0.04
71,223.9,0.0500,-66.58,7.69
72,226.5,0.0500,-67.08,3.60
73,229.1,0.0500,-67.58,3.16
74,231.7,0.0500,-68.37,-9.63
75,234.4,0.0500,-68.42,-0.14
76,237.1,0.0500,-68.39,-0.42
77,239.9,0.0500,-67.75,-0.38
78,242.7,0.0500,-68.42,2.65
79,245.5,0.0500,-67.88,1.37
80,248.3,0.0500,-67.53,6.85
81,251.2,0.0500,-66.52,1.88
82,254.1,0.0500,-65.61,5.53
83,257.0,0.0500,-67.94,1.88
84,260.0,0.0500,-67.92,6.27
85,263.0,0.0500,-68.40,4.84
86,266.1,0.0500,-67.94,5.97
87,269.2,0.0500,-67.74,4.38
88,272.3,0.0500,-66.98,5.02
89,275.4,0.0500,-67.25,-3.09
90,278.6,0.0500,-67.66,11.68
91,281.8,0.0500,-66.78,3.67
92,285.1,0.0500,-68.72,6.54
93,288.4,0.0500,-68.35,9.83
94,291.7,0.0500,-67.70,4.96
95,295.1,0.0500,-67.77,6.24
96,298.5,0.0500,-67.78,4.89
97,302.0,0.0500,-68.16,0.32
98,305.5,0.0500,-69.55,-5.74
99,309.0,0.0500,-68.64,-1.12
100,312.6,0.0500,-68.10,18.60
101,316.2,0.0500,-68.18,2.71
102,319.9,0.0500,-67.28,2.30
103,323.6,0.0500,-67.59,5.10
104,327.3,0.0500,-67.98,8.28
105,331.1,0.0500,-67.89,2.44
106,335.0,0.0500,-68.30,0.79
107,338.8,0.0500,-67.94,-6.27
108,342.8,0.0500,-66.26,3.96
109,346.7,0.0500,-67.19,5.97
110,350.8,0.0500,-68.02,-1.33
111,354.8,0.0500,-67.92,12.47
112,358.9,0.0500,-67.20,1.24
113,363.1,0.0500,-67.11,9.99
114,367.3,0.0500,-68.24,5.40
115,371.5,0.0500,-68.11,-1.55
116,375.8,0.0500,-67.71,5.65
117,380.2,0.0500,-67.98,2.46
118,384.6,0.0500,-67.31,-2.64
119,389.0,0.0500,-67.71,14.02
120,393.6,0.0500,-67.68,-2.60
121,398.1,0.0500,-68.86,11.43
122,402.7,0.0500,-68.00,15.28
123,407.4,0.0500,-66.49,5.58
124,412.1,0.0500,-68.47,9.59
125,416.9,0.0500,-67.06,6.32
126,421.7,0.0500,-67.95,-4.12
127,426.6,0.0500,-67.21,14.96
128,431.5,0.0500,-68.18,5.75
129,436.5,0.0500,-65.92,2.62
130,441.6,0.0500,-66.64,6.93
131,446.7,0.0500,-68.04,11.68
132,451.9,0.0500,-67.71,-1.33
133,457.1,0.0500,-68.28,8.37
134,462.4,0.0500,-67.22,2.88
135,467.7,0.0500,-68.03,0.86
136,473.2,0.0500,-67.55,5.55
137,478.6,0.0500,-67.35,11.57
138,484.2,0.0500,-67.16,12.76
139,489.8,0.0500,-67.39,3.03
140,495.5,0.0500,-67.29,3.10
141,501.2,0.0500,-67.09,14.48
142,507.0,0.0500,-67.16,-1.43
143,512.9,0.0500,-67.44,-4.49
144,518.8,0.0500,-66.79,5.06
145,524.8,0.0500,-68.43,2.15
146,530.9,0.0500,-66.50,8.67
147,537.0,0.0500,-66.87,3.96
148,543.3,0.0500,-67.34,1.22
149,549.5,0.0500,-67.04,5.67
150,555.9,0.0500,-67.52,12.48
151,562.3,0.0500,-66.83,-5.07
152,568.9,0.0500,-67.19,11.75
153,575.4,0.0500,-67.35,1.92
154,582.1,0.0500,-68.06,11.43
155,588.8,0.0500,-67.95,-0.43
156,595.7,0.0500,-67.46,-0.79
157,602.6,0.0500,-66.64,2.59
158,609.5,0.0500,-66.20,3.06
159,616.6,0.0500,-66.69,14.46
160,623.7,0.0500,-66.92,10.08
161,631.0,0.0500,-67.86,11.38
162,638.3,0.0500,-67.17,6.48
163,645.7,0.0500,-66.14,5.96
164,653.1,0.0500,-67.69,19.13
165,660.7,0.0500,-67.57,10.80
166,668.3,0.0500,-67.40,10.62
167,676.1,0.0500,-67.16,10.50
168,683.9,0.0500,-66.23,13.32
169,691.8,0.0500,-67.26,8.77
170,699.8,0.0500,-65.32,10.37
171,707.9,0.0500,-68.01,11.04
172,716.1,0.0500,-68.84,13.09
173,724.4,0.0500,-66.56,4.81
174,732.8,0.0500,-68.34,9.28
175,741.3,0.0500,-65.37,19.30
176,749.9,0.0500,-67.99,5.27
177,758.6,0.0500,-67.53,2.36
178,767.4,0.0500,-65.20,10.77
179,776.2,0.0500,-66.25,6.16
180,785.2,0.0500,-68.52,-6.01
181,794.3,0.0500,-66.00,9.96
182,803.5,0.0500,-66.06,13.66
183,812.8,0.0500,-65.40,12.43
184,822.2,0.0500,-66.15,0.17
185,831.8,0.0500,-67.06,1.43
186,841.4,0.0500,-67.11,8.51
187,851.1,0.0500,-66.44,8.76
188,861.0,0.0500,-66.83,8.46
189,871.0,0.0500,-66.67,13.39
190,881.0,0.0500,-66.09,16.32
191,891.3,0.0500,-67.64,10.49
192,901.6,0.0500,-66.70,24.60
193,912.0,0.0500,-66.50,8.09
194,922.6,0.0500,-66.45,17.14
195,933.3,0.0500,-67.04,21.66
196,944.1,0.0500,-66.67,13.48
197,955.0,0.0500,-66.90,11.45
198,966.1,0.0500,-66.94,9.45
199,977.2,0.0500,-67.72,10.99
200,988.6,0.0500,-66.37,2.27
201,1000.0,0.0500,-65.91,1.80
202,1011.6,0.0500,-66.35,7.68
203,1023.3,0.0500,-65.30,22.14
204,1035.1,0.0500,-66.16,0.56
205,1047.1,0.0500,-67.58,4.70
206,1059.3,0.0500,-65.47,16.19
207,1071.5,0.0500,-64.71,17.89
208,1083.9,0.0500,-67.14,10.85
209,1096.5,0.0500,-66.89,28.49
210,1109.2,0.0500,-66.27,13.43
211,1122.0,0.0500,-66.95,15.31
212,1135.0,0.0500,-66.32,11.80
213,1148.2,0.0500,-66.88,9.48
214,1161.4,0.0500,-65.84,16.36
215,1174.9,0.0500,-66.09,19.16
216,1188.5,0.0500,-66.74,12.40
217,1202.3,0.0500,-66.26,11.34
218,1216.2,0.0500,-66.48,7.83
219,1230.3,0.0500,-66.34,21.98
220,1244.5,0.0500,-66.79,14.32
221,1258.9,0.0500,-66.62,16.05
222,1273.5,0.0500,-66.06,13.94
223,1288.2,0.0500,-66.15,15.45
224,1303.2,0.0500,-67.09,17.80
225,1318.3,0.0500,-66.30,20.24
226,1333.5,0.0500,-66.98,26.87
227,1349.0,0.0500,-65.56,21.38
228,1364.6,0.0500,-67.71,6.04
229,1380.4,0.0500,-64.34,22.30
230,1396.4,0.0500,-68.07,24.36
231,1412.5,0.0500,-65.87,23.48
232,1428.9,0.0500,-66.15,16.89
233,1445.4,0.0500,-66.29,33.42
234,1462.2,0.0500,-69.92,23.46
235,1479.1,0.0500,-64.56,23.23
236,1496.2,0.0500,-67.24,15.55
237,1513.6,0.0500,-64.25,7.41
238,1531.1,0.0500,-68.72,10.09
239,1548.8,0.0500,-67.42,22.57
240,1566.8,0.0500,-66.45,-0.33
241,1584.9,0.0500,-64.94,58.59
242,1603.2,0.0500,-65.16,36.64
243,1621.8,0.0500,-64.26,0.41
244,1640.6,0.0500,-68.12,2.46
245,1659.6,0.0500,-66.45,17.49
246,1678.8,0.0500,-63.44,6.76
247,1698.2,0.0500,-74.93,-16.48
248,1717.9,0.0500,-66.05,16.07
249,1737.8,0.0500,-64.29,12.87
250,1757.9,0.0500,-66.19,15.96
251,1778.3,0.0500,-68.13,30.11
252,1798.9,0.0500,-67.94,5.65
253,1819.7,0.0500,-66.94,26.99
254,1840.8,0.0500,-65.23,16.12
255,1862.1,0.0500,-67.99,27.88
256,1883.6,0.0500,-63.58,-1.08
257,1905.5,0.0500,-68.16,6.31
258,1927.5,0.0500,-65.77,12.30
259,1949.8,0.0500,-66.49,19.86
260,1972.4,0.0500,-66.68,28.07
261,1995.3,0.0500,-69.57,-7.27
262,2018.4,0.0500,-66.85,14.31
263,2041.7,0.0500,-67.58,25.64
264,2065.4,0.0500,-65.91,38.01
265,2089.3,0.0500,-65.61,17.05
266,2113.5,0.0500,-67.21,12.01
267,2138.0,0.0500,-65.77,20.73
268,2162.7,0.0500,-65.87,31.94
269,2187.8,0.0500,-65.73,30.01
270,2213.1,0.0500,-65.61,28.66
271,2238.7,0.0500,-64.95,35.73
272,2264.6,0.0500,-65.56,26.68
273,2290.9,0.0500,-66.91,27.78
274,2317.4,0.0500,-65.59,22.47
275,2344.2,0.0500,-66.31,36.12
276,2371.4,0.0500,-65.33,23.28
277,2398.8,0.0500,-65.20,40.84
278,2426.6,0.0500,-66.70,15.69
279,2454.7,0.0500,-64.88,24.53
280,2483.1,0.0500,-63.07,40.46
281,2511.9,0.0500,-62.76,31.77
282,2541.0,0.0500,-64.75,28.87
283,2570.4,0.0500,-69.87,28.53
284,2600.2,0.0500,-66.38,28.75
285,2630.3,0.0500,-65.38,24.23
286,2660.7,0.0500,-64.68,25.21
287,2691.5,0.0500,-62.95,20.61
288,2722.7,0.0500,-64.19,29.05
289,2754.2,0.0500,-66.07,35.12
290,2786.1,0.0500,-67.03,40.29
291,2818.4,0.0500,-64.00,33.28
292,2851.0,0.0500,-64.81,27.35
293,2884.0,0.0500,-65.57,30.75
294,2917.4,0.0500,-65.81,37.19
295,2951.2,0.0500,-64.75,20.59
296,2985.4,0.0500,-65.30,44.51
297,3020.0,0.0500,-64.07,26.74
298,3054.9,0.0500,-64.15,38.45
299,3090.3,0.0500,-63.43,33.87
300,3126.1,0.0500,-65.20,31.70
301,3162.3,0.0500,-64.76,23.62
302,3198.9,0.0500,-64.44,39.49
303,3235.9,0.0500,-64.62,39.43
304,3273.4,0.0500,-66.28,34.01
305,3311.3,0.0500,-63.32,30.12
306,3349.7,0.0500,-64.56,30.17
307,3388.4,0.0500,-63.78,26.45
308,3427.7,0.0500,-66.40,42.25
309,3467.4,0.0500,-63.81,43.35
310,3507.5,0.0500,-66.01,43.42
311,3548.1,0.0500,-64.13,35.34
312,3589.2,0.0500,-62.59,24.63
313,3630.8,0.0500,-64.24,40.22
314,3672.8,0.0500,-65.04,42.13
315,3715.4,0.0500,-67.40,29.46
316,3758.4,0.0500,-63.34,41.18
317,3801.9,0.0500,-60.98,38.58
318,3845.9,0.0500,-64.81,37.30
319,3890.5,0.0500,-63.97,34.24
320,3935.5,0.0500,-64.13,44.42
321,3981.1,0.0500,-64.52,12.34
322,4027.2,0.0500,-63.82,50.13
323,4073.8,0.0500,-63.06,31.34
324,4121.0,0.0500,-63.59,40.24
325,4168.7,0.0500,-62.69,44.54
326,4217.0,0.0500,-63.75,38.23
327,4265.8,0.0500,-63.82,49.69
328,4315.2,0.0500,-63.09,38.46
329,4365.2,0.0500,-63.61,37.18
330,4415.7,0.0500,-63.79,48.23
331,4466.8,0.0500,-62.32,43.82
332,4518.6,0.0500,-65.39,48.16
333,4570.9,0.0500,-63.18,44.76
334,4623.8,0.0500,-64.31,44.40
335,4677.4,0.0500,-65.65,45.08
336,4731.5,0.0500,-64.43,47.13
337,4786.3,0.0500,-62.61,35.54
338,4841.7,0.0500,-65.50,33.47
339,4897.8,0.0500,-64.11,50.85
340,4954.5,0.0500,-61.47,45.50
341,5011.9,0.0500,-63.30,46.73
342,5069.9,0.0500,-62.53,43.01
343,5128.6,0.0500,-62.27,37.89
344,5188.0,0.0500,-63.39,40.11
345,5248.1,0.0500,-63.23,42.08
346,5308.8,0.0500,-62.84,43.59
347,5370.3,0.0500,-64.15,43.92
348,5432.5,0.0500,-62.85,61.28
349,5495.4,0.0500,-61.67,63.82
350,5559.0,0.0500,-63.48,49.91
351,5623.4,0.0500,-62.98,65.09
352,5688.5,0.0500,-61.93,41.74
353,5754.4,0.0500,-62.63,48.29
354,5821.0,0.0500,-61.44,46.69
355,5888.4,0.0500,-62.36,47.78
356,5956.6,0.0500,-61.85,47.39
357,6025.6,0.0500,-63.58,43.87
358,6095.4,0.0500,-62.28,47.97
359,6166.0,0.0500,-63.45,51.54
360,6237.3,0.0500,-62.24,47.58
361,6309.6,0.0500,-62.21,56.03
362,6382.6,0.0500,-61.53,46.96
363,6456.5,0.0500,-62.06,48.35
364,6531.3,0.0500,-61.56,48.46
365,6606.9,0.0500,-62.06,56.68
366,6683.4,0.0500,-61.96,51.89
367,6760.8,0.0500,-60.96,45.69
368,6839.1,0.0500,-62.52,42.50
369,6918.3,0.0500,-61.23,58.14
370,6998.4,0.0500,-60.72,53.83
371,7079.5,0.0500,-61.93,46.70
372,7161.4,0.0500,-61.77,47.72
373,7244.4,0.0500,-60.79,57.79
374,7328.2,0.0500,-60.93,55.12
375,7413.1,0.0500,-60.08,43.42
376,7498.9,0.0500,-60.04,53.33
377,7585.8,0.0500,-60.04,60.99
378,7673.6,0.0500,-61.06,55.55
379,7762.5,0.0500,-61.00,50.70
380,7852.4,0.0500,-60.45,52.28
381,7943.3,0.0500,-59.91,54.93
382,8035.3,0.0500,-61.52,72.87
383,8128.3,0.0500,-59.86,51.52
384,8222.4,0.0500,-60.85,53.59
385,8317.6,0.0500,-59.86,49.43
386,8414.0,0.0500,-59.97,60.20
387,8511.4,0.0500,-60.44,52.33
388,8609.9,0.0500,-60.36,57.07
389,8709.6,0.0500,-59.94,58.70
390,8810.5,0.0500,-59.56,58.23
391,8912.5,0.0500,-59.31,54.83
392,9015.7,0.0500,-59.10,51.92
393,9120.1,0.0500,-59.87,55.78
394,9225.7,0.0500,-59.23,58.28
395,9332.5,0.0500,-58.59,55.17
396,9440.6,0.0500,-59.16,56.41
397,9549.9,0.0500,-60.65,53.53
398,9660.5,0.0500,-59.55,58.51
399,9772.4,0.0500,-59.13,56.68
400,9885.5,0.0500,-59.81,55.35
401,10000.0,0.0500,-59.31,53.11
402,10115.8,0.0500,-59.39,55.91
403,10232.9,0.0500,-58.57,56.33
404,10351.4,0.0500,-59.65,56.42
405,10471.3,0.0500,-59.09,58.04
406,10592.5,0.0500,-58.86,59.02
407,10715.2,0.0500,-58.57,55.86
408,10839.3,0.0500,-58.75,52.89
409,10964.8,0.0500,-57.95,54.03
410,11091.7,0.0500,-58.27,61.98
411,11220.2,0.0500,-58.52,57.86
412,11350.1,0.0500,-58.03,59.35
413,11481.5,0.0500,-58.46,59.29
414,11614.5,0.0500,-57.55,59.07
415,11749.0,0.0500,-57.86,60.23
416,11885.0,0.0500,-58.24,59.83
417,12022.6,0.0500,-57.94,62.04
418,12161.9,0.0500,-56.63,56.98
419,12302.7,0.0500,-58.24,54.04
420,12445.1,0.0500,-57.45,61.64
421,12589.3,0.0500,-58.23,57.26
422,12735.0,0.0500,-57.25,60.94
423,12882.5,0.0500,-57.60,61.03
424,13031.7,0.0500,-57.45,61.40
425,13182.6,0.0500,-57.55,60.59
426,13335.2,0.0500,-57.18,59.76
427,13489.6,0.0500,-57.62,67.11
428,13645.8,0.0500,-57.07,61.60
429,13803.8,0.0500,-56.44,74.69
430,13963.7,0.0500,-56.59,68.67
431,14125.4,0.0500,-56.87,60.32
432,14288.9,0.0500,-55.97,60.58
433,14454.4,0.0500,-56.57,60.77
434,14621.8,0.0500,-56.09,55.99
435,14791.1,0.0500,-56.56,59.97
436,14962.4,0.0500,-56.41,62.50
437,15135.6,0.0500,-56.07,61.91
438,15310.9,0.0500,-56.17,62.44
439,15488.2,0.0500,-56.39,65.59
440,15667.5,0.0500,-56.04,61.16
441,15848.9,0.0500,-55.88,62.79
442,16032.5,0.0500,-55.64,62.02
443,16218.1,0.0500,-56.03,59.81
444,16405.9,0.0500,-55.55,58.03
445,16595.9,0.0500,-55.99,59.74
446,16788.0,0.0500,-55.85,62.43
447,16982.4,0.0500,-55.52,64.04
448,17179.1,0.0500,-55.40,64.86
449,17378.0,0.0500,-55.60,60.95
450,17579.2,0.0500,-55.15,61.83
451,17782.8,0.0500,-55.20,64.16
452,17988.7,0.0500,-55.00,67.80
453,18197.0,0.0500,-55.04,64.15
454,18407.7,0.0500,-55.26,62.03
455,18620.9,0.0500,-55.24,62.80
456,18836.5,0.0500,-54.64,62.46
457,19054.6,0.0500,-55.23,65.05
458,19275.2,0.0500,-55.38,60.92
459,19498.4,0.0500,-54.56,63.40
460,19724.2,0.0500,-54.69,58.91
461,19952.6,0.0500,-54.84,63.74
462,20183.7,0.0500,-54.78,59.94
463,20417.4,0.0500,-54.26,63.52
464,20653.8,0.0500,-54.73,61.60
465,20893.0,0.0500,-54.69,64.92
466,21134.9,0.0500,-54.22,63.33
467,21379.6,0.0500,-53.96,62.20
468,21627.2,0.0500,-53.83,62.69
469,21877.6,0.0500,-53.75,65.54
470,22130.9,0.0500,-53.80,62.51
471,22387.2,0.0500,-53.76,65.35
472,22646.4,0.0500,-53.81,62.88
473,22908.7,0.0500,-53.56,61.60
474,23173.9,0.0500,-53.73,61.62
475,23442.3,0.0500,-53.48,63.02
476,23713.7,0.0500,-53.35,63.15
477,23988.3,0.0500,-53.39,64.39
478,24266.1,0.0500,-53.18,62.77
479,24547.1,0.0500,-53.39,63.31
480,24831.3,0.0500,-53.13,62.71
481,25118.9,0.0500,-53.05,63.32
482,25409.7,0.0500,-52.95,64.66
483,25704.0,0.0500,-52.93,62.85
484,26001.6,0.0500,-53.02,61.22
485,26302.7,0.0500,-52.73,64.84
486,26607.3,0.0500,-52.83,62.69
487,26915.3,0.0500,-52.53,61.64
488,27227.0,0.0500,-52.27,62.85
489,27542.3,0.0500,-52.43,63.86
490,27861.2,0.0500,-52.28,63.33
491,28183.8,0.0500,-52.32,66.87
492,28510.2,0.0500,-52.16,64.32
493,28840.3,0.0500,-52.02,64.21
494,29174.3,0.0500,-51.86,63.73
495,29512.1,0.0500,-52.00,63.78
496,29853.8,0.0500,-52.01,63.27
497,30199.5,0.0500,-51.75,65.15
498,30549.2,0.0500,-51.73,64.81
499,30903.0,0.0500,-51.76,64.73
500,31260.8,0.0500,-51.90,62.86
501,31622.8,0.0500,-52.09,65.07
502,31989.0,0.0500,-51.23,65.82
503,32359.4,0.0500,-51.76,64.61
504,32734.1,0.0500,-51.28,64.21
505,33113.1,0.0500,-51.56,63.94
506,33496.5,0.0500,-51.31,63.60
507,33884.4,0.0500,-51.25,63.14
508,34276.8,0.0500,-51.12,63.22
509,34673.7,0.0500,-50.84,63.92
510,35075.2,0.0500,-51.30,66.33
511,35481.3,0.0500,-50.68,67.21
512,35892.2,0.0500,-50.69,67.11
513,36307.8,0.0500,-50.95,65.35
514,36728.2,0.0500,-50.70,64.59
515,37153.5,0.0500,-50.48,64.44
516,37583.7,0.0500,-50.38,66.38
517,38018.9,0.0500,-50.51,67.45
518,38459.2,0.0500,-50.34,66.43
519,38904.5,0.0500,-50.09,67.03
520,39355.0,0.0500,-50.42,66.31
521,39810.7,0.0500,-50.09,65.57
522,40271.7,0.0500,-50.25,66.60
523,40738.0,0.0500,-49.93,66.56
524,41209.8,0.0500,-49.75,66.56
525,41686.9,0.0500,-49.92,67.12
526,42169.7,0.0500,-49.75,65.61
527,42658.0,0.0500,-49.69,65.09
528,43151.9,0.0500,-49.53,64.99
529,43651.6,0.0500,-49.77,66.37
530,44157.0,0.0500,-49.54,66.75
531,44668.4,0.0500,-49.14,66.05
532,45185.6,0.0500,-49.10,65.21
533,45708.8,0.0500,-49.09,65.74
534,46238.1,0.0500,-49.18,66.00
535,46773.5,0.0500,-49.11,66.15
536,47315.1,0.0500,-49.02,65.22
537,47863.0,0.0500,-49.11,65.89
538,48417.2,0.0500,-49.17,69.04
539,48977.9,0.0500,-48.20,66.59
540,49545.0,0.0500,-48.89,68.18
541,50118.7,0.0500,-48.80,68.27
542,50699.1,0.0500,-48.32,67.80
543,51286.1,0.0500,-48.27,68.47
544,51880.0,0.0500,-48.03,67.38
545,52480.7,0.0500,-48.26,66.98
546,53088.4,0.0500,-47.90,67.17
547,53703.2,0.0500,-48.01,65.91
548,54325.0,0.0500,-47.90,65.96
549,54954.1,0.0500,-47.71,63.99
550,55590.4,0.0500,-47.63,66.58
551,56234.1,0.0500,-47.78,68.25
552,56885.3,0.0500,-47.61,66.05
553,57544.0,0.0500,-47.39,66.94
554,58210.3,0.0500,-47.47,69.36
555,58884.4,0.0500,-47.64,67.06
556,59566.2,0.0500,-47.36,66.14
557,60256.0,0.0500,-47.80,69.91
558,60953.7,0.0500,-47.49,66.34
559,61659.5,0.0500,-46.96,68.05
560,62373.5,0.0500,-46.85,67.27
561,63095.7,0.0500,-47.07,66.60
562,63826.3,0.0500,-47.16,66.91
563,64565.4,0.0500,-46.91,63.84
564,65313.1,0.0500,-47.03,69.30
565,66069.3,0.0500,-46.59,70.33
566,66834.4,0.0500,-46.68,66.51
567,67608.3,0.0500,-46.51,66.72
568,68391.2,0.0500,-46.65,65.38
569,69183.1,0.0500,-46.50,68.60
570,69984.2,0.0500,-46.28,67.14
571,70794.6,0.0500,-46.15,65.22
572,71614.3,0.0500,-46.35,67.49
573,72443.6,0.0500,-46.28,67.02
574,73282.5,0.0500,-46.44,65.71
575,74131.0,0.0500,-45.87,71.30
576,74989.4,0.0500,-45.56,68.66
577,75857.8,0.0500,-45.72,68.07
578,76736.1,0.0500,-45.95,64.59
579,77624.7,0.0500,-45.29,69.51
580,78523.6,0.0500,-45.58,68.40
581,79432.8,0.0500,-45.71,69.46
582,80352.6,0.0500,-45.43,69.36
583,81283.1,0.0500,-45.43,67.89
584,82224.3,0.0500,-45.11,67.29
585,83176.4,0.0500,-45.17,67.99
586,84139.5,0.0500,-45.51,67.60
587,85113.8,0.0500,-45.03,69.46
588,86099.4,0.0500,-44.99,72.24
589,87096.4,0.0500,-45.09,67.97
590,88104.9,0.0500,-44.98,68.54
591,89125.1,0.0500,-44.84,68.61
592,90157.1,0.0500,-45.01,67.29
593,91201.1,0.0500,-44.40,68.36
594,92257.1,0.0500,-44.33,69.13
595,93325.4,0.0500,-44.49,68.46
596,94406.1,0.0500,-44.25,67.96
597,95499.3,0.0500,-44.27,68.99
598,96605.1,0.0500,-44.13,68.44
599,97723.7,0.0500,-44.22,69.46
600,98855.3,0.0500,-43.94,69.25
601,100000.0,0.0500,-43.79,69.95
602,101157.9,0.0500,-43.95,68.86
603,102329.3,0.0500,-43.71,69.12
604,103514.2,0.0500,-43.63,69.04
605,104712.9,0.0500,-43.72,69.43
606,105925.4,0.0500,-43.58,68.66
607,107151.9,0.0500,-43.62,70.01
608,108392.7,0.0500,-43.16,68.98
609,109647.8,0.0500,-43.16,68.88
610,110917.5,0.0500,-43.21,69.38
611,112201.8,0.0500,-42.76,69.46
612,113501.1,0.0500,-43.38,71.29
613,114815.4,0.0500,-42.91,70.49
614,116144.9,0.0500,-42.72,70.84
615,117489.8,0.0500,-42.71,72.10
616,118850.2,0.0500,-42.63,68.32
617,120226.4,0.0500,-42.27,71.42
618,121618.6,0.0500,-42.46,70.97
619,123026.9,0.0500,-42.37,69.38
620,124451.5,0.0500,-42.18,69.45
621,125892.5,0.0500,-42.03,69.06
622,127350.3,0.0500,-41.92,70.09
623,128825.0,0.0500,-42.11,69.95
624,130316.7,0.0500,-41.96,69.98
625,131825.7,0.0500,-42.09,66.34
626,133352.1,0.0500,-41.92,69.66
627,134896.3,0.0500,-41.74,69.60
628,136458.3,0.0500,-41.31,69.31
629,138038.4,0.0500,-41.33,68.73
630,139636.8,0.0500,-41.24,69.51
631,141253.8,0.0500,-41.88,70.74
632,142889.4,0.0500,-41.02,72.34
633,144544.0,0.0500,-41.36,69.74
634,146217.7,0.0500,-41.14,71.25
635,147910.8,0.0500,-40.97,70.60
636,149623.6,0.0500,-40.71,71.00
637,151356.1,0.0500,-40.99,68.92
638,153108.7,0.0500,-40.64,67.95
639,154881.7,0.0500,-40.32,71.69
640,156675.1,0.0500,-40.56,69.67
641,158489.3,0.0500,-40.04,67.36
642,160324.5,0.0500,-40.33,70.97
643,162181.0,0.0500,-40.31,69.99
644,164059.0,0.0500,-40.20,70.18
645,165958.7,0.0500,-39.62,74.13
646,167880.4,0.0500,-38.77,72.83
647,169824.4,0.0500,-39.93,69.87
648,171790.8,0.0500,-39.89,69.82
649,173780.1,0.0500,-39.54,69.65
650,175792.4,0.0500,-39.39,71.47
651,177827.9,0.0500,-39.66,77.10
652,179887.1,0.0500,-39.15,68.83
653,181970.1,0.0500,-39.18,69.37
654,184077.2,0.0500,-39.15,70.45
655,186208.7,0.0500,-39.52,70.54
656,188364.9,0.0500,-39.25,70.34
657,190546.1,0.0500,-39.29,67.45
658,192752.5,0.0500,-40.55,70.03
659,194984.5,0.0500,-38.50,69.77
660,197242.3,0.0500,-38.54,70.04
661,199526.2,0.0500,-38.42,69.84
662,201836.6,0.0500,-38.56,67.67
663,204173.8,0.0500,-38.35,69.15
664,206538.0,0.0500,-37.82,72.53
665,208929.6,0.0500,-38.36,72.32
666,211348.9,0.0500,-37.98,70.46
667,213796.2,0.0500,-37.96,69.32
668,216271.9,0.0500,-37.87,68.68
669,218776.2,0.0500,-37.83,60.44
670,221309.5,0.0500,-37.67,71.41
671,223872.1,0.0500,-37.23,74.85
672,226464.4,0.0500,-37.60,71.11
673,229086.8,0.0500,-37.32,68.46
674,231739.5,0.0500,-37.30,68.81
675,234422.9,0.0500,-37.01,69.46
676,237137.4,0.0500,-37.02,70.78
677,239883.3,0.0500,-36.13,71.96
678,242661.0,0.0500,-36.77,66.47
679,245470.9,0.0500,-36.73,69.13
680,248313.3,0.0500,-36.76,68.42
681,251188.6,0.0500,-36.40,67.56
682,254097.3,0.0500,-36.44,69.88
683,257039.6,0.0500,-36.78,64.89
684,260016.0,0.0500,-35.96,65.63
685,263026.8,0.0500,-36.32,67.34
686,266072.5,0.0500,-36.10,66.42
687,269153.5,0.0500,-36.05,72.07
688,272270.1,0.0500,-36.10,65.17
689,275422.9,0.0500,-35.22,70.84
690,278612.1,0.0500,-35.83,66.62
691,281838.3,0.0500,-35.54,67.32
692,285101.8,0.0500,-35.52,66.98
693,288403.2,0.0500,-35.32,67.00
694,291742.7,0.0500,-35.32,67.17
695,295120.9,0.0500,-35.09,66.99
696,298538.3,0.0500,-35.02,67.00
697,301995.2,0.0500,-34.81,66.89
698,305492.1,0.0500,-34.70,67.36
699,309029.5,0.0500,-34.73,64.97
700,312607.9,0.0500,-34.62,65.96
701,316227.8,0.0500,-34.55,65.89
702,319889.5,0.0500,-34.46,65.31
703,323593.7,0.0500,-34.48,65.47
704,327340.7,0.0500,-34.16,65.43
705,331131.1,0.0500,-33.95,62.31
706,334965.4,0.0500,-34.00,65.04
707,338844.2,0.0500,-34.17,64.58
708,342767.8,0.0500,-33.68,64.94
709,346736.9,0.0500,-33.64,64.69
710,350751.9,0.0500,-33.49,64.41
711,354813.4,0.0500,-33.50,64.33
712,358921.9,0.0500,-33.36,64.34
713,363078.1,0.0500,-33.46,63.10
714,367282.3,0.0500,-33.28,61.85
715,371535.2,0.0500,-32.93,64.34
716,375837.4,0.0500,-32.89,63.00
717,380189.4,0.0500,-32.77,62.99
718,384591.8,0.0500,-32.46,63.88
719,389045.1,0.0500,-32.69,62.76
720,393550.1,0.0500,-32.35,62.18
721,398107.2,0.0500,-32.37,62.41
722,402717.0,0.0500,-32.20,61.89
723,407380.3,0.0500,-32.19,61.69
724,412097.5,0.0500,-32.11,61.46
725,416869.4,0.0500,-32.06,60.55
726,421696.5,0.0500,-31.82,61.79
727,426579.5,0.0500,-31.80,60.48
728,431519.1,0.0500,-32.14,59.27
729,436515.8,0.0500,-31.70,57.66
730,441570.4,0.0500,-31.66,58.24
731,446683.6,0.0500,-31.23,59.63
732,451855.9,0.0500,-31.64,61.02
733,457088.2,0.0500,-30.96,59.67
734,462381.0,0.0500,-30.89,59.48
735,467735.1,0.0500,-30.70,55.70
736,473151.3,0.0500,-30.43,58.61
737,478630.1,0.0500,-30.12,63.13
738,484172.4,0.0500,-30.51,56.78
739,489778.8,0.0500,-29.89,54.43
740,495450.2,0.0500,-29.23,55.22
741,501187.2,0.0500,-29.81,56.77
742,506990.7,0.0500,-29.89,55.36
743,512861.4,0.0500,-28.99,62.36
744,518800.0,0.0500,-29.65,55.54
745,524807.5,0.0500,-30.94,48.29
746,530884.4,0.0500,-30.84,61.02
747,537031.8,0.0500,-29.20,53.81
748,543250.3,0.0500,-29.46,54.82
749,549540.9,0.0500,-29.93,57.38
750,555904.3,0.0500,-27.54,60.06
751,562341.3,0.0500,-28.66,52.50
752,568852.9,0.0500,-29.00,51.38
753,575439.9,0.0500,-26.92,50.45
754,582103.2,0.0500,-28.51,51.53
755,588843.7,0.0500,-28.07,50.50
756,595662.1,0.0500,-26.31,53.23
757,602559.6,0.0500,-28.27,48.80
758,609536.9,0.0500,-27.84,50.63
759,616595.0,0.0500,-27.85,47.09
760,623734.8,0.0500,-26.17,46.93
761,630957.3,0.0500,-27.20,46.67
762,638263.5,0.0500,-28.21,43.80
763,645654.2,0.0500,-28.31,45.80
764,653130.6,0.0500,-24.90,36.40
765,660693.4,0.0500,-27.20,44.12
766,668343.9,0.0500,-27.25,46.26
767,676083.0,0.0500,-26.84,34.85
768,683911.6,0.0500,-26.36,42.37
769,691831.0,0.0500,-26.78,42.51
770,699842.0,0.0500,-26.08,35.48
771,707945.8,0.0500,-26.02,40.73
772,716143.4,0.0500,-26.01,42.63
773,724436.0,0.0500,-25.53,38.75
774,732824.5,0.0500,-25.69,37.74
775,741310.2,0.0500,-25.20,40.78
776,749894.2,0.0500,-25.82,36.38
777,758577.6,0.0500,-25.62,36.80
778,767361.5,0.0500,-25.26,37.10
779,776247.1,0.0500,-24.86,34.07
780,785235.6,0.0500,-24.48,30.47
781,794328.2,0.0500,-24.88,29.44
782,803526.1,0.0500,-23.13,40.45
783,812830.5,0.0500,-23.81,14.25
784,822242.6,0.0500,-24.12,31.72
785,831763.8,0.0500,-24.21,27.98
786,841395.1,0.0500,-24.61,33.89
787,851138.0,0.0500,-24.18,23.19
788,860993.8,0.0500,-23.70,23.30
789,870963.6,0.0500,-24.21,19.81
790,881048.9,0.0500,-24.11,23.66
791,891250.9,0.0500,-23.18,18.07
792,901571.1,0.0500,-23.53,17.46
793,912010.8,0.0500,-23.13,16.21
794,922571.4,0.0500,-23.97,20.89
795,933254.3,0.0500,-23.16,21.72
796,944060.9,0.0500,-23.04,11.53
797,954992.6,0.0500,-22.87,15.01
798,966050.9,0.0500,-22.16,13.78
799,977237.2,0.0500,-22.21,1.74
800,988553.1,0.0500,-22.79,5.24
801,1000000.0,0.0500,-22.41,3.48
802,1011579.5,0.0500,-22.02,4.64
803,1023293.0,0.0500,-23.00,3.21
804,1035142.2,0.0500,-21.44,0.68
805,1047128.5,0.0500,-22.08,2.60
806,1059253.7,0.0500,-21.37,-3.94
807,1071519.3,0.0500,-22.78,1.08
808,1083926.9,0.0500,-21.70,-3.57
809,1096478.2,0.0500,-20.57,-23.20
810,1109174.8,0.0500,-22.37,-19.37
811,1122018.5,0.0500,-21.54,-15.19
812,1135010.8,0.0500,-22.33,-16.33
813,1148153.6,0.0500,-22.13,-22.76
814,1161448.6,0.0500,-22.22,-18.19
815,1174897.6,0.0500,-21.87,-14.08
816,1188502.2,0.0500,-21.82,-29.81
817,1202264.4,0.0500,-21.79,-26.26
818,1216186.0,0.0500,-22.33,-31.73
819,1230268.8,0.0500,-22.18,-37.80
820,1244514.6,0.0500,-22.52,-37.51
821,1258925.4,0.0500,-26.33,-28.04
822,1273503.1,0.0500,-22.76,-39.57
823,1288249.6,0.0500,-22.47,-43.44
824,1303166.8,0.0500,-28.87,-31.24
825,1318256.7,0.0500,-27.91,-24.39
826,1333521.4,0.0500,-21.87,-44.12
827,1348962.9,0.0500,-24.34,-46.88
828,1364583.1,0.0500,-24.20,-51.76
829,1380384.3,0.0500,-24.32,-39.49
830,1396368.4,0.0500,-23.50,-42.01
831,1412537.5,0.0500,-24.38,-47.73
832,1428894.0,0.0500,-24.54,-55.61
833,1445439.8,0.0500,-24.33,-58.33
834,1462177.2,0.0500,-23.63,-55.42
835,1479108.4,0.0500,-25.81,-57.48
836,1496235.7,0.0500,-24.03,-61.71
837,1513561.2,0.0500,-24.62,-70.57
838,1531087.5,0.0500,-24.91,-78.69
839,1548816.6,0.0500,-25.98,-60.80
840,1566751.1,0.0500,-26.56,-79.00
841,1584893.2,0.0500,-25.28,-75.94
842,1603245.4,0.0500,-29.72,-73.08
843,1621810.1,0.0500,-27.03,-75.24
844,1640589.8,0.0500,-25.46,-85.78
845,1659586.9,0.0500,-23.95,-75.64
846,1678804.0,0.0500,-29.99,-78.16
847,1698243.7,0.0500,-31.96,-68.55
848,1717908.4,0.0500,-30.25,-93.39
849,1737800.8,0.0500,-29.79,-23.57
850,1757923.6,0.0500,-35.18,-94.27
851,1778279.4,0.0500,-31.96,-110.22
852,1798870.9,0.0500,-33.33,-99.62
853,1819700.9,0.0500,-33.73,-96.96
854,1840772.0,0.0500,-35.39,-158.27
855,1862087.1,0.0500,-35.00,-5.23
856,1883649.1,0.0500,-35.09,-71.64
857,1905460.7,0.0500,-47.98,63.12
858,1927524.9,0.0500,-36.26,-38.65
859,1949844.6,0.0500,-34.89,3.98
860,1972422.7,0.0500,-30.27,-25.14
861,1995262.3,0.0500,-30.89,-18.88
862,2018366.4,0.0500,-23.65,-6.19
863,2041737.9,0.0500,-26.78,-67.83
864,2065380.2,0.0500,-28.72,-38.73
865,2089296.1,0.0500,-23.92,-65.66
866,2113489.0,0.0500,-28.51,-41.73
867,2137962.1,0.0500,-26.52,-56.58
868,2162718.5,0.0500,-30.00,-59.03
869,2187761.6,0.0500,-29.92,-49.54
870,2213094.7,0.0500,-28.20,-34.29
871,2238721.1,0.0500,-28.42,-51.41
872,2264644.3,0.0500,-29.62,-55.24
873,2290867.7,0.0500,-29.35,-71.62
874,2317394.6,0.0500,-29.55,-49.44
875,2344228.8,0.0500,-27.31,-71.24
876,2371373.7,0.0500,-29.15,-81.12
877,2398832.9,0.0500,-24.46,-39.51
878,2426610.1,0.0500,-35.09,-88.03
879,2454708.9,0.0500,-29.90,-73.94
880,2483133.1,0.0500,-27.84,-80.94
881,2511886.4,0.0500,-49.44,151.46
882,2540972.7,0.0500,-34.54,-23.23
883,2570395.8,0.0500,-38.10,13.97
884,2600159.6,0.0500,-32.04,-96.13
885,2630268.0,0.0500,-30.05,-81.56
886,2660725.1,0.0500,-33.46,-97.29
887,2691534.8,0.0500,-31.39,-77.05
888,2722701.3,0.0500,-32.48,-83.33
889,2754228.7,0.0500,-35.60,-102.30
890,2786121.2,0.0500,-34.17,-83.99
891,2818382.9,0.0500,-32.93,-50.54
892,2851018.3,0.0500,-50.33,-75.64
893,2884031.5,0.0500,-26.62,-28.17
894,2917427.0,0.0500,-34.72,-60.49
895,2951209.2,0.0500,-36.50,-44.03
896,2985382.6,0.0500,-32.65,-61.75
897,3019951.7,0.0500,-36.41,-74.63
898,3054921.1,0.0500,-34.27,-55.38
899,3090295.4,0.0500,-28.28,-49.02
900,3126079.4,0.0500,-36.41,-61.60
901,3162277.7,0.0500,-31.41,-85.52
902,3198895.1,0.0500,-38.81,-90.55
903,3235936.6,0.0500,-36.03,-97.49
904,3273406.9,0.0500,-33.19,-73.41
905,3311311.2,0.0500,-32.04,-85.07
906,3349654.4,0.0500,-36.91,-86.12
907,3388441.6,0.0500,-38.54,-100.61
908,3427677.9,0.0500,-33.73,-75.71
909,3467368.5,0.0500,-32.16,-17.61
910,3507518.7,0.0500,-33.06,-93.71
911,3548133.9,0.0500,-39.38,-104.54
912,3589219.3,0.0500,-34.99,-84.77
913,3630780.5,0.0500,-34.03,-77.65
914,3672823.0,0.0500,-37.28,-82.89
915,3715352.3,0.0500,-34.61,-95.03
916,3758374.0,0.0500,-35.87,-58.46
917,3801894.0,0.0500,-34.96,-102.68
918,3845917.8,0.0500,-37.22,-100.32
919,3890451.4,0.0500,-33.68,-77.63
920,3935500.8,0.0500,-35.99,-90.23
921,3981071.7,0.0500,-36.87,-77.48
922,4027170.3,0.0500,-34.82,-103.39
923,4073802.8,0.0500,-35.70,-52.32
924,4120975.2,0.0500,-37.74,-113.76
925,4168693.8,0.0500,-33.58,-93.08
926,4216965.0,0.0500,-35.41,-83.74
927,4265795.2,0.0500,-36.28,-92.10
928,4315190.8,0.0500,-34.22,-106.14
929,4365158.3,0.0500,-38.23,-76.28
930,4415704.5,0.0500,-36.76,22.78
931,4466835.9,0.0500,-39.35,-75.23
932,4518559.4,0.0500,-39.10,-90.50
933,4570881.9,0.0500,-39.30,-122.38
934,4623810.2,0.0500,-38.90,-104.96
935,4677351.4,0.0500,-38.96,-120.40
936,4731512.6,0.0500,-36.32,-108.95
937,4786300.9,0.0500,-40.46,-99.58
938,4841723.7,0.0500,-32.26,-83.66
939,4897788.2,0.0500,-38.38,-97.13
940,4954501.9,0.0500,-39.43,-104.87
941,5011872.3,0.0500,-40.80,-108.04
942,5069907.1,0.0500,-38.87,-104.53
943,5128613.8,0.0500,-39.53,-97.18
944,5188000.4,0.0500,-38.93,-81.93
945,5248074.6,0.0500,-38.83,-97.70
946,5308844.4,0.0500,-42.32,-72.93
947,5370318.0,0.0500,-41.63,-75.62
948,5432503.3,0.0500,-45.12,-73.08
949,5495408.7,0.0500,-46.93,-138.07
950,5559042.6,0.0500,-38.11,-97.27
951,5623413.3,0.0500,-42.81,-19.64
952,5688529.3,0.0500,-45.17,-99.90
953,5754399.4,0.0500,-38.85,-113.22
954,5821032.2,0.0500,-43.21,-77.88
955,5888436.6,0.0500,-44.82,-127.87
956,5956621.4,0.0500,-41.13,-122.54
957,6025595.9,0.0500,-40.69,-72.24
958,6095369.0,0.0500,-52.14,2.02
959,6165950.0,0.0500,-39.67,-67.55
960,6237348.4,0.0500,-48.54,-150.11
961,6309573.4,0.0500,-44.74,-64.56
962,6382634.9,0.0500,-50.54,-103.67
963,6456542.3,0.0500,-46.86,-106.68
964,6531305.5,0.0500,-73.72,3.53
965,6606934.5,0.0500,-41.53,-85.31
966,6683439.2,0.0500,-49.92,-49.57
967,6760829.8,0.0500,-39.80,-65.40
968,6839116.5,0.0500,-41.38,-48.26
969,6918309.7,0.0500,-46.50,162.03
970,6998420.0,0.0500,-41.98,-10.16
971,7079457.8,0.0500,-39.63,-165.84
972,7161434.1,0.0500,-50.98,-127.31
973,7244359.6,0.0500,-42.48,-74.26
974,7328245.3,0.0500,-47.50,-70.07
975,7413102.4,0.0500,-50.75,-82.24
976,7498942.1,0.0500,-53.70,-36.81
977,7585775.8,0.0500,-42.71,-158.15
978,7673614.9,0.0500,-48.31,75.27
979,7762471.2,0.0500,-42.15,-157.71
980,7852356.3,0.0500,-39.33,-23.85
981,7943282.3,0.0500,-46.57,-103.75
982,8035261.2,0.0500,-36.73,-45.14
983,8128305.2,0.0500,-52.63,-14.58
984,8222426.5,0.0500,-45.89,-27.20
985,8317637.7,0.0500,-47.60,-58.73
986,8413951.4,0.0500,-40.60,-7.65
987,8511380.4,0.0500,-52.19,-5.75
988,8609937.5,0.0500,-39.19,-3.13
989,8709635.9,0.0500,-46.36,-33.50
990,8810488.7,0.0500,-46.99,-28.18
991,8912509.4,0.0500,-40.11,-61.90
992,9015711.4,0.0500,-42.94,-120.03
993,9120108.4,0.0500,-45.35,-61.88
994,9225714.3,0.0500,-47.26,-15.32
995,9332543.0,0.0500,-41.96,-15.79
996,9440608.8,0.0500,-43.00,-0.20
997,9549925.9,0.0500,-47.73,-27.61
998,9660508.8,0.0500,-45.69,8.55
999,9772372.2,0.0500,-41.83,-45.09
1000,9885530.9,0.0500,-41.03,-27.72
1001,10000000.0,0.0500,-41.48,-22.86
