#, Frequency (Hz), Amplitude (Vpp), Gain (dB), Phase (°)
1,100.0,0.0500,-66.50,5.69
2,101.2,0.0500,-68.05,7.20
3,102.3,0.0500,-67.32,-15.97
4,103.5,0.0500,-67.97,-6.75
5,104.7,0.0500,-70.72,-5.31
6,105.9,0.0500,-66.40,5.86
7,107.2,0.0500,-66.73,0.95
8,108.4,0.0500,-68.91,0.63
9,109.6,0.0500,-68.40,-1.91
10,110.9,0.0500,-67.97,-2.25
11,112.2,0.0500,-68.75,-3.40
12,113.5,0.0500,-68.49,3.42
13,114.8,0.0500,-68.76,1.49
14,116.1,0.0500,-69.18,9.20
15,117.5,0.0500,-68.04,-6.91
16,118.9,0.0500,-69.39,-0.45
17,120.2,0.0500,-68.24,4.79
18,121.6,0.0500,-67.53,3.80
19,123.0,0.0500,-69.12,8.45
20,124.5,0.0500,-68.11,-3.67
21,125.9,0.0500,-68.67,-2.74
22,127.4,0.0500,-66.40,3.55
23,128.8,0.0500,-68.61,-8.96
24,130.3,0.0500,-68.23,-2.62
25,131.8,0.0500,-66.92,0.12
26,133.4,0.0500,-68.43,7.08
27,134.9,0.0500,-66.25,-1.45
28,136.5,0.0500,-67.38,-1.33
29,138.0,0.0500,-67.17,8.80
30,139.6,0.0500,-69.96,-0.66
31,141.3,0.0500,-68.74,-2.64
32,142.9,0.0500,-70.59,4.44
33,144.5,0.0500,-66.87,-17.83
34,146.2,0.0500,-67.78,-4.03
35,147.9,0.0500,-68.63,7.61
36,149.6,0.0500,-68.69,-1.11
37,151.4,0.0500,-68.99,-1.07
38,153.1,0.0500,-68.05,5.33
39,154.9,0.0500,-67.48,-2.90
40,156.7,0.0500,-67.30,12.49
41,158.5,0.0500,-67.73,2.75
42,160.3,0.0500,-67.61,11.09
43,162.2,0.0500,-68.80,-4.19
44,164.1,0.0500,-67.75,4.30
45,166.0,0.0500,-68.26,7.22
46,167.9,0.0500,-67.07,0.35
47,169.8,0.0500,-69.56,13.48
48,171.8,0.0500,-66.33,-1.91
49,173.8,0.0500,-66.62,7.71
50,175.8,0.0500,-67.82,-0.36
51,177.8,0.0500,-67.88,-5.21
52,179.9,0.0500,-67.95,2.13
53,182.0,0.0500,-67.26,1.01
54,184.1,0.0500,-67.30,-5.22
55,186.2,0.0500,-68.61,-10.37
56,188.4,0.0500,-66.91,12.97
57,190.5,0.0500,-67.92,-0.37
58,192.8,0.0500,-68.49,0.77
59,195.0,0.0500,-66.47,7.34
60,197.2,0.0500,-66.61,5.51
61,199.5,0.0500,-69.73,-5.69
62,201.8,0.0500,-68.14,9.89
63,204.2,0.0500,-67.65,3.13
64,206.5,0.0500,-68.28,7.99
65,208.9,0.0500,-67.41,2.67
66,211.3,0.0500,-68.18,4.09
67,213.8,0.0500,-68.51,1.40
68,216.3,0.0500,-66.84,6.52
69,218.8,0.0500,-65.92,1.98
70,221.3,0.0500,-68.06,4.60
71,223.9,0.0500,-65.74,-6.18
72,226.5,0.0500,-67.45,-1.04
73,229.1,0.0500,-67.72,-0.85
74,231.7,0.0500,-67.02,8.25
75,234.4,0.0500,-66.51,-0.84
76,237.1,0.0500,-66.68,2.89
77,239.9,0.0500,-67.27,6.22
78,242.7,0.0500,-68.98,-2.62
79,245.5,0.0500,-65.95,-5.83
80,248.3,0.0500,-67.38,1.37
81,251.2,0.0500,-66.54,1.54
82,254.1,0.0500,-67.19,8.48
83,257.0,0.0500,-68.50,5.75
84,260.0,0.0500,-67.30,-2.97
85,263.0,0.0500,-69.45,13.36
86,266.1,0.0500,-66.00,4.41
87,269.2,0.0500,-67.94,10.98
88,272.3,0.0500,-67.35,7.71
89,275.4,0.0500,-67.94,10.69
90,278.6,0.0500,-68.96,7.29
91,281.8,0.0500,-67.04,-2.58
92,285.1,0.0500,-66.40,9.50
93,288.4,0.0500,-66.68,11.85
94,291.7,0.0500,-68.26,-4.51
95,295.1,0.0500,-67.65,13.33
96,298.5,0.0500,-67.85,5.63
97,302.0,0.0500,-68.26,4.93
98,305.5,0.0500,-67.60,-3.75
99,309.0,0.0500,-67.29,5.76
100,312.6,0.0500,-66.29,-2.91
101,316.2,0.0500,-68.14,-1.43
102,319.9,0.0500,-67.75,1.09
103,323.6,0.0500,-68.50,-2.12
104,327.3,0.0500,-68.36,4.94
105,331.1,0.0500,-66.97,6.63
106,335.0,0.0500,-66.60,3.82
107,338.8,0.0500,-66.68,-4.98
108,342.8,0.0500,-66.40,13.42
109,346.7,0.0500,-66.82,12.02
110,350.8,0.0500,-66.65,6.85
111,354.8,0.0500,-67.43,8.74
112,358.9,0.0500,-67.52,-10.81
113,363.1,0.0500,-67.54,-3.23
114,367.3,0.0500,-67.39,16.85
115,371.5,0.0500,-69.21,13.67
116,375.8,0.0500,-67.26,9.48
117,380.2,0.0500,-68.03,-2.06
118,384.6,0.0500,-67.73,11.19
119,389.0,0.0500,-66.94,-9.08
120,393.6,0.0500,-65.87,-2.74
121,398.1,0.0500,-67.71,16.07
122,402.7,0.0500,-70.01,-2.96
123,407.4,0.0500,-67.42,15.32
124,412.1,0.0500,-67.59,-0.20
125,416.9,0.0500,-66.26,4.13
126,421.7,0.0500,-67.14,10.10
127,426.6,0.0500,-66.55,11.00
128,431.5,0.0500,-68.18,5.93
129,436.5,0.0500,-67.16,5.47
130,441.6,0.0500,-67.11,7.38
131,446.7,0.0500,-67.46,2.60
132,451.9,0.0500,-67.83,0.94
133,457.1,0.0500,-66.74,10.91
134,462.4,0.0500,-66.88,13.40
135,467.7,0.0500,-65.70,5.18
136,473.2,0.0500,-65.54,-0.03
137,478.6,0.0500,-66.94,5.68
138,484.2,0.0500,-65.67,8.85
139,489.8,0.0500,-66.77,11.88
140,495.5,0.0500,-68.36,6.20
141,501.2,0.0500,-68.11,5.14
142,507.0,0.0500,-68.21,6.70
143,512.9,0.0500,-66.03,2.32
144,518.8,0.0500,-67.56,4.24
145,524.8,0.0500,-66.78,8.40
146,530.9,0.0500,-67.08,3.64
147,537.0,0.0500,-66.59,0.74
148,543.3,0.0500,-66.62,15.31
149,549.5,0.0500,-66.15,10.62
150,555.9,0.0500,-66.49,7.55
151,562.3,0.0500,-66.85,9.46
152,568.9,0.0500,-68.20,8.77
153,575.4,0.0500,-66.63,10.13
154,582.1,0.0500,-66.66,9.10
155,588.8,0.0500,-67.26,10.22
156,595.7,0.0500,-66.99,12.38
157,602.6,0.0500,-67.05,7.35
158,609.5,0.0500,-67.06,13.35
159,616.6,0.0500,-66.99,5.66
160,623.7,0.0500,-67.91,4.86
161,631.0,0.0500,-66.92,10.47
162,638.3,0.0500,-69.03,9.79
163,645.7,0.0500,-68.31,9.06
164,653.1,0.0500,-67.99,10.15
165,660.7,0.0500,-67.64,7.80
166,668.3,0.0500,-67.41,5.93
167,676.1,0.0500,-68.05,1.92
168,683.9,0.0500,-65.13,11.23
169,691.8,0.0500,-67.17,7.23
170,699.8,0.0500,-67.42,-3.47
171,707.9,0.0500,-66.07,6.27
172,716.1,0.0500,-67.00,24.30
173,724.4,0.0500,-65.57,-0.31
174,732.8,0.0500,-67.76,3.01
175,741.3,0.0500,-67.31,11.37
176,749.9,0.0500,-67.09,9.27
177,758.6,0.0500,-66.77,10.96
178,767.4,0.0500,-67.09,3.56
179,776.2,0.0500,-66.92,23.03
180,785.2,0.0500,-66.62,5.94
181,794.3,0.0500,-65.54,19.22
182,803.5,0.0500,-66.74,16.51
183,812.8,0.0500,-66.33,10.69
184,822.2,0.0500,-66.82,12.90
185,831.8,0.0500,-66.35,14.63
186,841.4,0.0500,-66.56,9.90
187,851.1,0.0500,-66.87,14.19
188,861.0,0.0500,-66.75,16.33
189,871.0,0.0500,-65.44,12.66
190,881.0,0.0500,-67.07,12.54
191,891.3,0.0500,-65.89,7.69
192,901.6,0.0500,-67.71,4.98
193,912.0,0.0500,-66.02,13.00
194,922.6,0.0500,-66.04,14.02
195,933.3,0.0500,-66.73,6.83
196,944.1,0.0500,-66.23,6.63
197,955.0,0.0500,-66.12,3.24
198,966.1,0.0500,-67.46,10.13
199,977.2,0.0500,-65.49,7.95
200,988.6,0.0500,-65.78,18.10
201,1000.0,0.0500,-66.82,1.91
202,1011.6,0.0500,-67.96,3.56
203,1023.3,0.0500,-66.19,19.48
204,1035.1,0.0500,-65.46,1.41
205,1047.1,0.0500,-66.01,13.67
206,1059.3,0.0500,-65.33,7.06
207,1071.5,0.0500,-67.19,14.71
208,1083.9,0.0500,-66.94,12.67
209,1096.5,0.0500,-65.71,5.92
210,1109.2,0.0500,-68.69,18.60
211,1122.0,0.0500,-66.61,13.49
212,1135.0,0.0500,-66.88,9.34
213,1148.2,0.0500,-66.53,8.65
214,1161.4,0.0500,-65.89,20.84
215,1174.9,0.0500,-66.42,10.63
216,1188.5,0.0500,-67.33,8.44
217,1202.3,0.0500,-66.99,17.35
218,1216.2,0.0500,-66.01,20.56
219,1230.3,0.0500,-66.50,16.06
220,1244.5,0.0500,-66.38,9.29
221,1258.9,0.0500,-67.39,14.65
222,1273.5,0.0500,-67.06,17.49
223,1288.2,0.0500,-66.41,14.76
224,1303.2,0.0500,-66.25,16.77
225,1318.3,0.0500,-66.08,14.07
226,1333.5,0.0500,-66.39,14.11
227,1349.0,0.0500,-67.06,18.34
228,1364.6,0.0500,-65.76,19.27
229,1380.4,0.0500,-66.40,8.26
230,1396.4,0.0500,-66.17,41.13
231,1412.5,0.0500,-65.33,27.07
232,1428.9,0.0500,-68.00,7.88
233,1445.4,0.0500,-66.33,27.41
234,1462.2,0.0500,-67.23,16.72
235,1479.1,0.0500,-62.90,1.81
236,1496.2,0.0500,-66.39,13.61
237,1513.6,0.0500,-67.03,18.33
238,1531.1,0.0500,-66.76,42.39
239,1548.8,0.0500,-64.24,16.26
240,1566.8,0.0500,-66.07,4.10
241,1584.9,0.0500,-70.99,10.61
242,1603.2,0.0500,-68.42,10.95
243,1621.8,0.0500,-63.69,23.66
244,1640.6,0.0500,-67.39,13.27
245,1659.6,0.0500,-66.13,6.48
246,1678.8,0.0500,-64.16,3.14
247,1698.2,0.0500,-64.32,26.74
248,1717.9,0.0500,-64.00,28.93
249,1737.8,0.0500,-66.08,21.83
250,1757.9,0.0500,-66.18,31.71
251,1778.3,0.0500,-67.68,11.07
252,1798.9,0.0500,-65.06,15.09
253,1819.7,0.0500,-64.80,16.16
254,1840.8,0.0500,-68.00,-9.62
255,1862.1,0.0500,-63.89,33.31
256,1883.6,0.0500,-69.67,1.89
257,1905.5,0.0500,-70.45,9.60
258,1927.5,0.0500,-64.42,18.81
259,1949.8,0.0500,-65.59,23.38
260,1972.4,0.0500,-62.78,17.59
261,1995.3,0.0500,-63.94,13.19
262,2018.4,0.0500,-65.15,25.75
263,2041.7,0.0500,-67.76,17.73
264,2065.4,0.0500,-64.95,27.11
265,2089.3,0.0500,-66.78,27.86
266,2113.5,0.0500,-66.13,20.19
267,2138.0,0.0500,-64.91,23.86
268,2162.7,0.0500,-65.71,28.38
269,2187.8,0.0500,-64.24,21.05
270,2213.1,0.0500,-65.67,23.11
271,2238.7,0.0500,-65.84,25.07
272,2264.6,0.0500,-64.55,26.58
273,2290.9,0.0500,-66.27,16.52
274,2317.4,0.0500,-65.22,29.85
275,2344.2,0.0500,-65.12,22.67
276,2371.4,0.0500,-65.18,13.22
277,2398.8,0.0500,-67.05,28.43
278,2426.6,0.0500,-67.62,14.23
279,2454.7,0.0500,-64.07,26.96
280,2483.1,0.0500,-68.86,37.03
281,2511.9,0.0500,-65.28,41.64
282,2541.0,0.0500,-67.45,39.04
283,2570.4,0.0500,-65.20,47.74
284,2600.2,0.0500,-68.46,29.53
285,2630.3,0.0500,-67.11,45.49
286,2660.7,0.0500,-66.62,44.96
287,2691.5,0.0500,-64.91,21.68
288,2722.7,0.0500,-62.04,33.66
289,2754.2,0.0500,-63.67,30.67
290,2786.1,0.0500,-62.29,34.64
291,2818.4,0.0500,-67.11,29.58
292,2851.0,0.0500,-66.00,20.23
293,2884.0,0.0500,-67.78,51.37
294,2917.4,0.0500,-62.57,22.70
295,2951.2,0.0500,-64.31,39.21
296,2985.4,0.0500,-66.36,38.50
297,3020.0,0.0500,-63.31,41.15
298,3054.9,0.0500,-62.98,37.22
299,3090.3,0.0500,-64.84,31.83
300,3126.1,0.0500,-66.25,27.32
301,3162.3,0.0500,-65.11,44.14
302,3198.9,0.0500,-64.55,33.75
303,3235.9,0.0500,-65.22,31.09
304,3273.4,0.0500,-65.45,33.94
305,3311.3,0.0500,-64.45,22.49
306,3349.7,0.0500,-63.18,28.08
307,3388.4,0.0500,-65.93,34.27
308,3427.7,0.0500,-65.28,26.15
309,3467.4,0.0500,-63.49,49.57
310,3507.5,0.0500,-65.38,34.98
311,3548.1,0.0500,-65.20,33.98
312,3589.2,0.0500,-62.54,30.66
313,3630.8,0.0500,-65.68,40.14
314,3672.8,0.0500,-65.19,29.91
315,3715.4,0.0500,-63.52,43.91
316,3758.4,0.0500,-62.80,39.31
317,3801.9,0.0500,-61.96,51.64
318,3845.9,0.0500,-63.31,45.35
319,3890.5,0.0500,-64.38,35.51
320,3935.5,0.0500,-62.74,46.20
321,3981.1,0.0500,-64.65,48.68
322,4027.2,0.0500,-63.66,39.44
323,4073.8,0.0500,-63.64,27.11
324,4121.0,0.0500,-62.27,26.65
325,4168.7,0.0500,-62.75,31.96
326,4217.0,0.0500,-63.33,51.94
327,4265.8,0.0500,-64.03,35.84
328,4315.2,0.0500,-65.25,47.02
329,4365.2,0.0500,-63.88,41.40
330,4415.7,0.0500,-63.30,34.23
331,4466.8,0.0500,-63.98,44.23
332,4518.6,0.0500,-64.17,52.23
333,4570.9,0.0500,-64.72,39.70
334,4623.8,0.0500,-62.71,36.05
335,4677.4,0.0500,-62.70,35.70
336,4731.5,0.0500,-64.33,44.23
337,4786.3,0.0500,-63.77,35.83
338,4841.7,0.0500,-64.37,31.00
339,4897.8,0.0500,-62.42,42.90
340,4954.5,0.0500,-66.70,37.06
341,5011.9,0.0500,-63.20,51.41
342,5069.9,0.0500,-62.55,54.78
343,5128.6,0.0500,-64.23,54.28
344,5188.0,0.0500,-63.19,53.97
345,5248.1,0.0500,-62.87,54.32
346,5308.8,0.0500,-62.28,46.19
347,5370.3,0.0500,-63.64,42.53
348,5432.5,0.0500,-62.62,54.38
349,5495.4,0.0500,-62.58,44.56
350,5559.0,0.0500,-63.19,57.34
351,5623.4,0.0500,-61.12,40.92
352,5688.5,0.0500,-64.48,47.65
353,5754.4,0.0500,-63.04,39.44
354,5821.0,0.0500,-62.29,34.72
355,5888.4,0.0500,-62.30,43.26
356,5956.6,0.0500,-63.29,39.97
357,6025.6,0.0500,-60.60,54.87
358,6095.4,0.0500,-63.53,46.15
359,6166.0,0.0500,-62.93,59.51
360,6237.3,0.0500,-63.71,41.09
361,6309.6,0.0500,-61.60,45.39
362,6382.6,0.0500,-61.54,48.04
363,6456.5,0.0500,-63.06,45.40
364,6531.3,0.0500,-62.15,53.58
365,6606.9,0.0500,-60.94,48.95
366,6683.4,0.0500,-62.25,59.19
367,6760.8,0.0500,-61.92,49.91
368,6839.1,0.0500,-61.46,48.42
369,6918.3,0.0500,-61.88,53.08
370,6998.4,0.0500,-60.39,44.58
371,7079.5,0.0500,-62.57,53.44
372,7161.4,0.0500,-61.23,55.37
373,7244.4,0.0500,-61.14,48.57
374,7328.2,0.0500,-59.83,64.60
375,7413.1,0.0500,-61.71,51.38
376,7498.9,0.0500,-57.63,73.73
377,7585.8,0.0500,-60.81,49.77
378,7673.6,0.0500,-60.55,51.70
379,7762.5,0.0500,-59.84,51.50
380,7852.4,0.0500,-61.60,52.57
381,7943.3,0.0500,-61.21,65.76
382,8035.3,0.0500,-60.04,52.16
383,8128.3,0.0500,-60.29,58.12
384,8222.4,0.0500,-60.23,50.12
385,8317.6,0.0500,-59.75,51.60
386,8414.0,0.0500,-60.64,48.33
387,8511.4,0.0500,-60.13,55.08
388,8609.9,0.0500,-59.90,58.73
389,8709.6,0.0500,-60.02,54.33
390,8810.5,0.0500,-59.69,53.67
391,8912.5,0.0500,-60.42,59.18
392,9015.7,0.0500,-58.97,63.70
393,9120.1,0.0500,-59.38,55.86
394,9225.7,0.0500,-59.64,51.17
395,9332.5,0.0500,-59.16,54.20
396,9440.6,0.0500,-59.55,56.57
397,9549.9,0.0500,-59.39,49.39
398,9660.5,0.0500,-59.49,57.42
399,9772.4,0.0500,-59.53,58.39
400,9885.5,0.0500,-59.16,51.67
401,10000.0,0.0500,-59.85,52.51
402,10115.8,0.0500,-58.99,53.34
403,10232.9,0.0500,-59.63,59.22
404,10351.4,0.0500,-58.54,56.56
405,10471.3,0.0500,-58.64,59.34
406,10592.5,0.0500,-58.92,55.64
407,10715.2,0.0500,-59.03,64.53
408,10839.3,0.0500,-58.84,60.64
409,10964.8,0.0500,-58.94,58.94
410,11091.7,0.0500,-58.90,59.55
411,11220.2,0.0500,-58.78,60.06
412,11350.1,0.0500,-58.04,59.64
413,11481.5,0.0500,-58.43,56.68
414,11614.5,0.0500,-58.47,56.81
415,11749.0,0.0500,-58.62,56.01
416,11885.0,0.0500,-58.40,58.40
417,12022.6,0.0500,-58.22,62.44
418,12161.9,0.0500,-58.15,63.38
419,12302.7,0.0500,-58.15,58.90
420,12445.1,0.0500,-57.63,59.28
421,12589.3,0.0500,-57.74,57.39
422,12735.0,0.0500,-57.86,57.26
423,12882.5,0.0500,-56.80,55.73
424,13031.7,0.0500,-57.07,56.63
425,13182.6,0.0500,-57.00,56.65
426,13335.2,0.0500,-57.25,63.40
427,13489.6,0.0500,-57.40,60.29
428,13645.8,0.0500,-57.07,59.86
429,13803.8,0.0500,-57.63,57.97
430,13963.7,0.0500,-56.45,51.01
431,14125.4,0.0500,-56.83,60.74
432,14288.9,0.0500,-56.21,63.02
433,14454.4,0.0500,-56.68,61.07
434,14621.8,0.0500,-56.00,59.24
435,14791.1,0.0500,-56.21,60.67
436,14962.4,0.0500,-56.97,64.40
437,15135.6,0.0500,-56.39,60.85
438,15310.9,0.0500,-56.75,60.05
439,15488.2,0.0500,-56.25,59.96
440,15667.5,0.0500,-56.12,61.61
441,15848.9,0.0500,-56.24,62.72
442,16032.5,0.0500,-55.87,64.79
443,16218.1,0.0500,-55.87,64.10
444,16405.9,0.0500,-55.95,60.15
445,16595.9,0.0500,-55.68,61.71
446,16788.0,0.0500,-55.95,66.40
447,16982.4,0.0500,-55.24,59.07
448,17179.1,0.0500,-55.36,62.80
449,17378.0,0.0500,-55.87,59.22
450,17579.2,0.0500,-55.72,64.11
451,17782.8,0.0500,-55.23,64.06
452,17988.7,0.0500,-55.19,61.52
453,18197.0,0.0500,-55.16,63.70
454,18407.7,0.0500,-55.27,64.02
455,18620.9,0.0500,-55.04,63.22
456,18836.5,0.0500,-55.29,61.51
457,19054.6,0.0500,-55.21,61.31
458,19275.2,0.0500,-54.48,64.85
459,19498.4,0.0500,-54.52,64.13
460,19724.2,0.0500,-54.60,62.72
461,19952.6,0.0500,-54.72,63.31
462,20183.7,0.0500,-54.52,65.46
463,20417.4,0.0500,-54.41,61.54
464,20653.8,0.0500,-54.55,61.49
465,20893.0,0.0500,-54.30,63.73
466,21134.9,0.0500,-54.12,66.61
467,21379.6,0.0500,-54.52,61.98
468,21627.2,0.0500,-54.09,64.66
469,21877.6,0.0500,-53.92,63.33
470,22130.9,0.0500,-54.24,62.47
471,22387.2,0.0500,-53.96,61.11
472,22646.4,0.0500,-54.00,62.12
473,22908.7,0.0500,-53.55,63.03
474,23173.9,0.0500,-53.22,62.36
475,23442.3,0.0500,-53.42,62.59
476,23713.7,0.0500,-53.53,64.24
477,23988.3,0.0500,-53.25,63.14
478,24266.1,0.0500,-53.37,62.84
479,24547.1,0.0500,-53.44,64.41
480,24831.3,0.0500,-53.13,63.51
481,25118.9,0.0500,-52.96,63.54
482,25409.7,0.0500,-53.10,63.11
483,25704.0,0.0500,-52.90,63.62
484,26001.6,0.0500,-52.76,63.41
485,26302.7,0.0500,-52.82,61.15
486,26607.3,0.0500,-52.72,65.36
487,26915.3,0.0500,-52.74,61.93
488,27227.0,0.0500,-52.87,60.65
489,27542.3,0.0500,-52.58,64.35
490,27861.2,0.0500,-52.26,63.65
491,28183.8,0.0500,-52.30,64.35
492,28510.2,0.0500,-52.48,63.65
493,28840.3,0.0500,-52.14,66.37
494,29174.3,0.0500,-52.19,65.52
495,29512.1,0.0500,-52.07,61.52
496,29853.8,0.0500,-51.86,66.31
497,30199.5,0.0500,-52.25,65.69
498,30549.2,0.0500,-51.77,64.70
499,30903.0,0.0500,-51.57,63.77
500,31260.8,0.0500,-51.66,64.18
501,31622.8,0.0500,-52.22,64.09
502,31989.0,0.0500,-51.07,64.06
503,32359.4,0.0500,-51.64,65.61
504,32734.1,0.0500,-51.41,66.81
505,33113.1,0.0500,-51.33,64.90
506,33496.5,0.0500,-51.50,62.78
507,33884.4,0.0500,-51.22,62.97
508,34276.8,0.0500,-50.99,64.98
509,34673.7,0.0500,-50.60,66.10
510,35075.2,0.0500,-51.01,64.73
511,35481.3,0.0500,-50.67,65.19
512,35892.2,0.0500,-50.76,64.46
513,36307.8,0.0500,-50.78,65.25
514,36728.2,0.0500,-50.64,64.49
515,37153.5,0.0500,-51.15,67.75
516,37583.7,0.0500,-50.59,64.36
517,38018.9,0.0500,-50.42,65.69
518,38459.2,0.0500,-50.46,67.04
519,38904.5,0.0500,-50.17,66.13
520,39355.0,0.0500,-50.16,64.70
521,39810.7,0.0500,-50.29,64.91
522,40271.7,0.0500,-49.68,63.57
523,40738.0,0.0500,-49.90,65.86
524,41209.8,0.0500,-49.85,65.53
525,41686.9,0.0500,-49.67,65.77
526,42169.7,0.0500,-49.39,65.32
527,42658.0,0.0500,-49.70,68.12
528,43151.9,0.0500,-49.77,66.55
529,43651.6,0.0500,-50.04,68.61
530,44157.0,0.0500,-49.43,66.24
531,44668.4,0.0500,-49.18,65.44
532,45185.6,0.0500,-49.53,66.03
533,45708.8,0.0500,-49.59,65.94
534,46238.1,0.0500,-49.08,65.36
535,46773.5,0.0500,-49.09,65.80
536,47315.1,0.0500,-48.50,68.86
537,47863.0,0.0500,-49.52,66.79
538,48417.2,0.0500,-49.02,66.24
539,48977.9,0.0500,-48.57,67.51
540,49545.0,0.0500,-48.13,67.33
541,50118.7,0.0500,-48.47,67.09
542,50699.1,0.0500,-47.85,70.57
543,51286.1,0.0500,-48.19,66.20
544,51880.0,0.0500,-48.42,68.83
545,52480.7,0.0500,-48.29,65.69
546,53088.4,0.0500,-48.11,66.74
547,53703.2,0.0500,-48.10,66.07
548,54325.0,0.0500,-47.63,68.01
549,54954.1,0.0500,-47.74,67.15
550,55590.4,0.0500,-48.42,66.26
551,56234.1,0.0500,-48.38,68.72
552,56885.3,0.0500,-47.22,63.90
553,57544.0,0.0500,-47.23,64.09
554,58210.3,0.0500,-47.53,66.10
555,58884.4,0.0500,-47.99,71.33
556,59566.2,0.0500,-47.63,66.97
557,60256.0,0.0500,-47.53,67.69
558,60953.7,0.0500,-47.01,67.64
559,61659.5,0.0500,-47.69,65.63
560,62373.5,0.0500,-47.09,65.02
561,63095.7,0.0500,-46.91,66.30
562,63826.3,0.0500,-46.65,68.34
563,64565.4,0.0500,-46.48,69.26
564,65313.1,0.0500,-46.76,65.21
565,66069.3,0.0500,-46.70,65.90
566,66834.4,0.0500,-46.49,68.66
567,67608.3,0.0500,-46.53,66.48
568,68391.2,0.0500,-46.82,67.74
569,69183.1,0.0500,-46.52,64.88
570,69984.2,0.0500,-46.20,67.50
571,70794.6,0.0500,-46.18,68.45
572,71614.3,0.0500,-46.31,66.93
573,72443.6,0.0500,-46.82,68.52
574,73282.5,0.0500,-46.21,66.89
575,74131.0,0.0500,-46.09,67.65
576,74989.4,0.0500,-46.24,63.96
577,75857.8,0.0500,-45.93,68.70
578,76736.1,0.0500,-45.76,67.69
579,77624.7,0.0500,-45.62,68.67
580,78523.6,0.0500,-45.81,67.79
581,79432.8,0.0500,-45.44,71.45
582,80352.6,0.0500,-45.04,68.28
583,81283.1,0.0500,-45.04,67.19
584,82224.3,0.0500,-45.42,68.09
585,83176.4,0.0500,-45.81,67.41
586,84139.5,0.0500,-45.26,67.54
587,85113.8,0.0500,-45.38,68.56
588,86099.4,0.0500,-45.41,69.02
589,87096.4,0.0500,-44.79,68.32
590,88104.9,0.0500,-44.70,67.38
591,89125.1,0.0500,-44.54,70.35
592,90157.1,0.0500,-44.97,68.72
593,91201.1,0.0500,-44.65,67.93
594,92257.1,0.0500,-44.52,68.50
595,93325.4,0.0500,-44.40,67.70
596,94406.1,0.0500,-44.43,67.84
597,95499.3,0.0500,-44.50,68.04
598,96605.1,0.0500,-44.16,68.63
599,97723.7,0.0500,-44.14,69.22
600,98855.3,0.0500,-43.98,69.19
601,100000.0,0.0500,-43.68,68.35
602,101157.9,0.0500,-43.96,70.05
603,102329.3,0.0500,-43.81,68.01
604,103514.2,0.0500,-43.76,71.66
605,104712.9,0.0500,-43.77,67.68
606,105925.4,0.0500,-43.69,68.12
607,107151.9,0.0500,-43.41,69.55
608,108392.7,0.0500,-43.61,69.97
609,109647.8,0.0500,-43.37,70.13
610,110917.5,0.0500,-43.20,70.01
611,112201.8,0.0500,-43.27,69.25
612,113501.1,0.0500,-43.10,69.88
613,114815.4,0.0500,-42.82,67.65
614,116144.9,0.0500,-42.81,68.97
615,117489.8,0.0500,-42.84,69.86
616,118850.2,0.0500,-42.68,69.56
617,120226.4,0.0500,-43.14,68.63
618,121618.6,0.0500,-42.34,69.87
619,123026.9,0.0500,-42.38,69.59
620,124451.5,0.0500,-42.12,68.91
621,125892.5,0.0500,-42.89,68.50
622,127350.3,0.0500,-42.20,70.52
623,128825.0,0.0500,-41.95,68.52
624,130316.7,0.0500,-41.84,66.51
625,131825.7,0.0500,-42.00,69.46
626,133352.1,0.0500,-41.85,70.78
627,134896.3,0.0500,-40.89,68.30
628,136458.3,0.0500,-41.70,66.27
629,138038.4,0.0500,-41.63,69.75
630,139636.8,0.0500,-41.44,70.49
631,141253.8,0.0500,-41.42,70.39
632,142889.4,0.0500,-41.25,70.52
633,144544.0,0.0500,-41.29,69.24
634,146217.7,0.0500,-41.06,69.73
635,147910.8,0.0500,-41.16,68.09
636,149623.6,0.0500,-41.05,70.40
637,151356.1,0.0500,-40.84,69.25
638,153108.7,0.0500,-40.72,70.22
639,154881.7,0.0500,-40.67,70.66
640,156675.1,0.0500,-40.53,69.55
641,158489.3,0.0500,-41.09,73.50
642,160324.5,0.0500,-39.72,69.95
643,162181.0,0.0500,-39.77,71.06
644,164059.0,0.0500,-40.65,70.58
645,165958.7,0.0500,-40.02,71.03
646,167880.4,0.0500,-40.18,70.09
647,169824.4,0.0500,-39.56,69.67
648,171790.8,0.0500,-39.02,62.44
649,173780.1,0.0500,-39.69,69.99
650,175792.4,0.0500,-38.57,55.80
651,177827.9,0.0500,-39.01,70.14
652,179887.1,0.0500,-39.40,70.52
653,181970.1,0.0500,-39.10,63.49
654,184077.2,0.0500,-41.11,67.75
655,186208.7,0.0500,-39.26,69.99
656,188364.9,0.0500,-39.18,69.85
657,190546.1,0.0500,-38.91,72.12
658,192752.5,0.0500,-39.07,68.20
659,194984.5,0.0500,-38.74,70.16
660,197242.3,0.0500,-38.67,67.53
661,199526.2,0.0500,-38.93,69.89
662,201836.6,0.0500,-38.59,69.13
663,204173.8,0.0500,-38.59,60.86
664,206538.0,0.0500,-38.32,70.11
665,208929.6,0.0500,-38.39,68.55
666,211348.9,0.0500,-38.04,69.33
667,213796.2,0.0500,-37.80,69.62
668,216271.9,0.0500,-37.68,70.57
669,218776.2,0.0500,-37.64,69.82
670,221309.5,0.0500,-37.53,59.75
671,223872.1,0.0500,-37.30,73.00
672,226464.4,0.0500,-37.69,66.39
673,229086.8,0.0500,-37.41,68.79
674,231739.5,0.0500,-37.37,67.95
675,234422.9,0.0500,-37.06,69.20
676,237137.4,0.0500,-37.36,65.87
677,239883.3,0.0500,-36.98,68.23
678,242661.0,0.0500,-36.95,69.31
679,245470.9,0.0500,-37.20,71.69
680,248313.3,0.0500,-37.28,71.93
681,251188.6,0.0500,-36.50,67.94
682,254097.3,0.0500,-36.22,67.14
683,257039.6,0.0500,-36.25,66.63
684,260016.0,0.0500,-36.49,66.78
685,263026.8,0.0500,-36.05,66.58
686,266072.5,0.0500,-36.11,68.02
687,269153.5,0.0500,-35.53,67.24
688,272270.1,0.0500,-36.43,63.32
689,275422.9,0.0500,-36.10,66.06
690,278612.1,0.0500,-35.45,67.46
691,281838.3,0.0500,-35.94,72.49
692,285101.8,0.0500,-35.66,67.37
693,288403.2,0.0500,-36.05,66.21
694,291742.7,0.0500,-35.14,67.01
695,295120.9,0.0500,-35.32,67.05
696,298538.3,0.0500,-35.11,66.58
697,301995.2,0.0500,-35.15,66.51
698,305492.1,0.0500,-34.48,65.64
699,309029.5,0.0500,-34.69,66.31
700,312607.9,0.0500,-34.62,66.18
701,316227.8,0.0500,-34.48,65.71
702,319889.5,0.0500,-34.52,66.09
703,323593.7,0.0500,-34.37,65.68
704,327340.7,0.0500,-34.21,66.39
705,331131.1,0.0500,-34.05,63.15
706,334965.4,0.0500,-33.92,66.02
707,338844.2,0.0500,-34.04,65.29
708,342767.8,0.0500,-34.09,64.48
709,346736.9,0.0500,-33.84,65.50
710,350751.9,0.0500,-33.76,64.52
711,354813.4,0.0500,-33.39,64.50
712,358921.9,0.0500,-33.34,64.90
713,363078.1,0.0500,-33.58,59.62
714,367282.3,0.0500,-33.13,63.99
715,371535.2,0.0500,-33.29,69.54
716,375837.4,0.0500,-32.93,63.43
717,380189.4,0.0500,-32.70,63.11
718,384591.8,0.0500,-33.55,62.77
719,389045.1,0.0500,-32.64,63.03
720,393550.1,0.0500,-32.57,62.25
721,398107.2,0.0500,-32.21,62.00
722,402717.0,0.0500,-32.37,61.66
723,407380.3,0.0500,-32.29,62.44
724,412097.5,0.0500,-32.11,58.76
725,416869.4,0.0500,-31.98,61.22
726,421696.5,0.0500,-31.71,60.57
727,426579.5,0.0500,-31.67,60.41
728,431519.1,0.0500,-31.52,57.92
729,436515.8,0.0500,-31.59,60.50
730,441570.4,0.0500,-31.40,60.43
731,446683.6,0.0500,-31.31,58.46
732,451855.9,0.0500,-31.24,59.53
733,457088.2,0.0500,-31.12,56.71
734,462381.0,0.0500,-31.13,60.07
735,467735.1,0.0500,-30.38,59.36
736,473151.3,0.0500,-30.99,64.22
737,478630.1,0.0500,-30.60,54.61
738,484172.4,0.0500,-30.78,55.15
739,489778.8,0.0500,-30.59,57.39
740,495450.2,0.0500,-30.30,53.45
741,501187.2,0.0500,-29.92,55.35
742,506990.7,0.0500,-30.10,56.52
743,512861.4,0.0500,-29.76,55.54
744,518800.0,0.0500,-29.81,56.97
745,524807.5,0.0500,-29.82,54.62
746,530884.4,0.0500,-29.87,54.45
747,537031.8,0.0500,-29.40,53.91
748,543250.3,0.0500,-29.16,55.49
749,549540.9,0.0500,-29.48,52.00
750,555904.3,0.0500,-29.70,48.43
751,562341.3,0.0500,-28.72,51.09
752,568852.9,0.0500,-28.76,52.54
753,575439.9,0.0500,-28.56,49.86
754,582103.2,0.0500,-26.13,53.10
755,588843.7,0.0500,-26.52,47.61
756,595662.1,0.0500,-28.11,51.20
757,602559.6,0.0500,-27.47,46.48
758,609536.9,0.0500,-28.00,50.46
759,616595.0,0.0500,-27.71,47.32
760,623734.8,0.0500,-28.88,48.78
761,630957.3,0.0500,-27.97,44.52
762,638263.5,0.0500,-27.05,40.34
763,645654.2,0.0500,-26.89,47.07
764,653130.6,0.0500,-28.31,47.35
765,660693.4,0.0500,-26.93,44.76
766,668343.9,0.0500,-26.72,42.60
767,676083.0,0.0500,-26.41,43.39
768,683911.6,0.0500,-26.22,41.04
769,691831.0,0.0500,-26.33,39.69
770,699842.0,0.0500,-28.14,33.94
771,707945.8,0.0500,-26.10,39.73
772,716143.4,0.0500,-26.37,43.14
773,724436.0,0.0500,-25.58,38.39
774,732824.5,0.0500,-25.40,37.08
775,741310.2,0.0500,-26.28,37.21
776,749894.2,0.0500,-28.34,39.39
777,758577.6,0.0500,-24.74,37.91
778,767361.5,0.0500,-24.93,30.89
779,776247.1,0.0500,-25.43,32.48
780,785235.6,0.0500,-24.94,32.70
781,794328.2,0.0500,-25.21,36.43
782,803526.1,0.0500,-24.10,32.96
783,812830.5,0.0500,-24.10,25.54
784,822242.6,0.0500,-22.00,35.39
785,831763.8,0.0500,-24.20,27.66
786,841395.1,0.0500,-25.60,13.86
787,851138.0,0.0500,-24.09,28.38
788,860993.8,0.0500,-22.13,36.63
789,870963.6,0.0500,-24.06,23.85
790,881048.9,0.0500,-23.78,17.17
791,891250.9,0.0500,-23.37,19.40
792,901571.1,0.0500,-22.32,51.86
793,912010.8,0.0500,-23.79,10.64
794,922571.4,0.0500,-23.32,11.47
795,933254.3,0.0500,-22.60,11.62
796,944060.9,0.0500,-22.52,6.85
797,954992.6,0.0500,-22.22,6.63
798,966050.9,0.0500,-21.38,16.24
799,977237.2,0.0500,-22.58,8.58
800,988553.1,0.0500,-22.85,1.21
801,1000000.0,0.0500,-22.32,2.14
802,1011579.5,0.0500,-23.04,-1.08
803,1023293.0,0.0500,-24.22,1.99
804,1035142.2,0.0500,-23.63,-11.03
805,1047128.5,0.0500,-23.36,-10.10
806,1059253.7,0.0500,-23.19,-13.79
807,1071519.3,0.0500,-21.52,-11.02
808,1083926.9,0.0500,-22.13,-11.02
809,1096478.2,0.0500,-22.92,-24.43
810,1109174.8,0.0500,-22.17,-22.71
811,1122018.5,0.0500,-22.53,-27.61
812,1135010.8,0.0500,-23.80,-12.76
813,1148153.6,0.0500,-23.47,-20.96
814,1161448.6,0.0500,-22.25,-27.23
815,1174897.6,0.0500,-23.31,-36.39
816,1188502.2,0.0500,-21.87,-23.58
817,1202264.4,0.0500,-24.36,-35.23
818,1216186.0,0.0500,-22.66,-36.84
819,1230268.8,0.0500,-24.43,-26.89
820,1244514.6,0.0500,-23.71,-31.07
821,1258925.4,0.0500,-23.52,-47.29
822,1273503.1,0.0500,-25.65,-22.50
823,1288249.6,0.0500,-24.83,-36.25
824,1303166.8,0.0500,-25.24,-39.91
825,1318256.7,0.0500,-24.22,-45.64
826,1333521.4,0.0500,-23.87,-58.43
827,1348962.9,0.0500,-27.30,-103.61
828,1364583.1,0.0500,-25.46,-62.22
829,1380384.3,0.0500,-24.73,-59.34
830,1396368.4,0.0500,-25.45,-49.41
831,1412537.5,0.0500,-26.36,-57.90
832,1428894.0,0.0500,-24.95,-58.22
833,1445439.8,0.0500,-26.74,-24.85
834,1462177.2,0.0500,-27.00,-62.73
835,1479108.4,0.0500,-25.39,-47.58
836,1496235.7,0.0500,-24.56,-57.72
837,1513561.2,0.0500,-27.70,-65.47
838,1531087.5,0.0500,-29.21,-69.88
839,1548816.6,0.0500,-28.06,-63.01
840,1566751.1,0.0500,-29.16,-65.17
841,1584893.2,0.0500,-28.50,-74.51
842,1603245.4,0.0500,-28.21,-85.12
843,1621810.1,0.0500,-28.54,-65.12
844,1640589.8,0.0500,-28.99,-72.76
845,1659586.9,0.0500,-28.96,-67.54
846,1678804.0,0.0500,-30.44,-95.38
847,1698243.7,0.0500,-29.91,-81.05
848,1717908.4,0.0500,-29.93,-15.53
849,1737800.8,0.0500,-31.83,-75.50
850,1757923.6,0.0500,-28.62,-136.01
851,1778279.4,0.0500,-37.63,-131.11
852,1798870.9,0.0500,-30.98,-88.43
853,1819700.9,0.0500,-38.06,-89.09
854,1840772.0,0.0500,-39.29,-75.79
855,1862087.1,0.0500,-41.96,-50.86
856,1883649.1,0.0500,-42.43,55.21
857,1905460.7,0.0500,-26.86,-110.14
858,1927524.9,0.0500,-36.62,-8.33
859,1949844.6,0.0500,-38.39,49.60
860,1972422.7,0.0500,-30.24,27.83
861,1995262.3,0.0500,-31.77,-11.05
862,2018366.4,0.0500,-28.06,-4.13
863,2041737.9,0.0500,-27.29,-25.81
864,2065380.2,0.0500,-22.47,-16.60
865,2089296.1,0.0500,-27.03,-28.51
866,2113489.0,0.0500,-28.21,-36.09
867,2137962.1,0.0500,-28.65,-78.27
868,2162718.5,0.0500,-29.31,-22.89
869,2187761.6,0.0500,-28.98,-50.42
870,2213094.7,0.0500,-26.98,-58.86
871,2238721.1,0.0500,-25.99,-58.44
872,2264644.3,0.0500,-29.28,-82.53
873,2290867.7,0.0500,-30.98,-55.06
874,2317394.6,0.0500,-28.76,-68.09
875,2344228.8,0.0500,-27.01,-73.81
876,2371373.7,0.0500,-30.19,-72.80
877,2398832.9,0.0500,-29.86,-57.91
878,2426610.1,0.0500,-29.44,-76.10
879,2454708.9,0.0500,-32.10,-72.75
880,2483133.1,0.0500,-31.98,-81.10
881,2511886.4,0.0500,-31.58,-58.08
882,2540972.7,0.0500,-31.18,-92.38
883,2570395.8,0.0500,-31.53,-54.97
884,2600159.6,0.0500,-30.99,-84.49
885,2630268.0,0.0500,-29.23,-111.96
886,2660725.1,0.0500,-29.66,-81.99
887,2691534.8,0.0500,-31.15,-89.63
888,2722701.3,0.0500,-34.89,-96.27
889,2754228.7,0.0500,-35.03,-65.15
890,2786121.2,0.0500,-31.95,-92.53
891,2818382.9,0.0500,-28.07,-96.08
892,2851018.3,0.0500,-39.30,-104.38
893,2884031.5,0.0500,-28.40,-118.44
894,2917427.0,0.0500,-35.53,-55.76
895,2951209.2,0.0500,-36.26,-69.82
896,2985382.6,0.0500,-49.95,-158.32
897,3019951.7,0.0500,-36.38,-73.90
898,3054921.1,0.0500,-37.02,-74.24
899,3090295.4,0.0500,-31.86,-120.73
900,3126079.4,0.0500,-34.65,-51.61
901,3162277.7,0.0500,-35.89,-71.38
902,3198895.1,0.0500,-43.75,-144.06
903,3235936.6,0.0500,-33.51,-73.91
904,3273406.9,0.0500,-40.87,-54.52
905,3311311.2,0.0500,-31.24,-50.18
906,3349654.4,0.0500,-33.63,-41.91
907,3388441.6,0.0500,-35.71,-70.28
908,3427677.9,0.0500,-36.60,-93.18
909,3467368.5,0.0500,-20.98,181.27
910,3507518.7,0.0500,-37.29,-102.21
911,3548133.9,0.0500,-35.34,-82.86
912,3589219.3,0.0500,-32.79,-40.34
913,3630780.5,0.0500,-33.80,-23.93
914,3672823.0,0.0500,-42.26,-71.97
915,3715352.3,0.0500,-39.50,-80.95
916,3758374.0,0.0500,-42.10,-91.69
917,3801894.0,0.0500,-28.78,-98.83
918,3845917.8,0.0500,-37.46,-99.78
919,3890451.4,0.0500,-38.46,-84.20
920,3935500.8,0.0500,-35.92,-81.93
921,3981071.7,0.0500,-36.82,-121.88
922,4027170.3,0.0500,-42.58,-112.59
923,4073802.8,0.0500,-43.01,-56.26
924,4120975.2,0.0500,-37.16,-81.90
925,4168693.8,0.0500,-36.67,-86.67
926,4216965.0,0.0500,-39.21,-71.40
927,4265795.2,0.0500,-40.46,-88.87
928,4315190.8,0.0500,-37.72,-101.61
929,4365158.3,0.0500,-34.52,-115.37
930,4415704.5,0.0500,-41.07,-79.71
931,4466835.9,0.0500,-39.12,-130.60
932,4518559.4,0.0500,-42.66,-53.99
933,4570881.9,0.0500,-27.93,165.19
934,4623810.2,0.0500,-43.63,-81.48
935,4677351.4,0.0500,-38.13,-89.66
936,4731512.6,0.0500,-51.25,-97.95
937,4786300.9,0.0500,-43.38,-82.34
938,4841723.7,0.0500,-65.34,33.60
939,4897788.2,0.0500,-43.04,-106.76
940,4954501.9,0.0500,-50.75,-103.41
941,5011872.3,0.0500,-38.67,-55.72
942,5069907.1,0.0500,-40.95,-41.86
943,5128613.8,0.0500,-41.83,-126.67
944,5188000.4,0.0500,-33.18,-78.01
945,5248074.6,0.0500,-44.78,-124.80
946,5308844.4,0.0500,-51.77,-55.87
947,5370318.0,0.0500,-52.55,-10.35
948,5432503.3,0.0500,-40.90,-40.11
949,5495408.7,0.0500,-35.73,107.91
950,5559042.6,0.0500,-40.79,-76.07
951,5623413.3,0.0500,-28.38,-135.98
952,5688529.3,0.0500,-45.82,-22.06
953,5754399.4,0.0500,-47.79,90.39
954,5821032.2,0.0500,-45.50,-134.43
955,5888436.6,0.0500,-55.00,7.09
956,5956621.4,0.0500,-41.93,182.80
957,6025595.9,0.0500,-61.04,-44.04
958,6095369.0,0.0500,-42.15,-121.92
959,6165950.0,0.0500,-47.67,58.26
960,6237348.4,0.0500,-44.52,50.62
961,6309573.4,0.0500,-41.69,-26.08
962,6382634.9,0.0500,-44.07,-1.77
963,6456542.3,0.0500,-42.56,61.13
964,6531305.5,0.0500,-42.85,35.56
965,6606934.5,0.0500,-45.25,-30.45
966,6683439.2,0.0500,-46.98,114.99
967,6760829.8,0.0500,-50.49,-4.66
968,6839116.5,0.0500,-42.62,-7.00
969,6918309.7,0.0500,-36.82,42.47
970,6998420.0,0.0500,-41.59,47.91
971,7079457.8,0.0500,-46.43,60.84
972,7161434.1,0.0500,-51.57,114.95
973,7244359.6,0.0500,-41.98,5.76
974,7328245.3,0.0500,-42.83,63.16
975,7413102.4,0.0500,-42.17,96.58
976,7498942.1,0.0500,-42.68,53.97
977,7585775.8,0.0500,-43.57,44.88
978,7673614.9,0.0500,-42.38,25.48
979,7762471.2,0.0500,-33.32,45.29
980,7852356.3,0.0500,-35.21,33.44
981,7943282.3,0.0500,-39.01,0.00
982,8035261.2,0.0500,-39.53,14.88
983,8128305.2,0.0500,-34.88,43.85
984,8222426.5,0.0500,-36.28,36.62
985,8317637.7,0.0500,-37.22,11.80
986,8413951.4,0.0500,-39.22,14.13
987,8511380.4,0.0500,-40.85,41.86
988,8609937.5,0.0500,-37.40,18.60
989,8709635.9,0.0500,-37.44,15.83
990,8810488.7,0.0500,-34.81,20.64
991,8912509.4,0.0500,-34.50,17.80
992,9015711.4,0.0500,-35.23,9.43
993,9120108.4,0.0500,-35.51,5.97
994,9225714.3,0.0500,-34.54,10.08
995,9332543.0,0.0500,-35.51,4.91
996,9440608.8,0.0500,-31.95,17.17
997,9549925.9,0.0500,-34.44,-5.00
998,9660508.8,0.0500,-34.08,10.27
999,9772372.2,0.0500,-33.11,-1.64
1000,9885530.9,0.0500,-34.53,3.80
1001,10000000.0,0.0500,-34.81,0.58
