#, Frequency (Hz), Amplitude (Vpp), Gain (dB), Phase (°)
1,100.0,0.0500,-72.64,-7.42
2,101.2,0.0500,-71.27,14.55
3,102.3,0.0500,-74.08,-6.19
4,103.5,0.0500,-69.98,6.44
5,104.7,0.0500,-72.12,0.37
6,105.9,0.0500,-72.70,-2.05
7,107.2,0.0500,-68.89,-10.71
8,108.4,0.0500,-71.35,-1.33
9,109.6,0.0500,-69.71,-0.79
10,110.9,0.0500,-73.41,-8.60
11,112.2,0.0500,-72.75,5.05
12,113.5,0.0500,-70.70,9.81
13,114.8,0.0500,-71.82,3.03
14,116.1,0.0500,-67.97,0.68
15,117.5,0.0500,-68.41,0.95
16,118.9,0.0500,-71.97,-9.61
17,120.2,0.0500,-73.15,-17.56
18,121.6,0.0500,-71.49,3.42
19,123.0,0.0500,-69.53,7.31
20,124.5,0.0500,-72.44,6.05
21,125.9,0.0500,-70.60,12.00
22,127.4,0.0500,-72.21,9.57
23,128.8,0.0500,-71.36,-5.42
24,130.3,0.0500,-71.62,8.61
25,131.8,0.0500,-71.09,14.81
26,133.4,0.0500,-70.96,12.75
27,134.9,0.0500,-70.51,10.74
28,136.5,0.0500,-71.00,-1.05
29,138.0,0.0500,-71.25,3.77
30,139.6,0.0500,-71.19,-7.57
31,141.3,0.0500,-71.85,-7.59
32,142.9,0.0500,-70.87,3.27
33,144.5,0.0500,-71.05,-4.80
34,146.2,0.0500,-69.35,12.25
35,147.9,0.0500,-68.69,0.61
36,149.6,0.0500,-70.84,10.24
37,151.4,0.0500,-71.41,-7.73
38,153.1,0.0500,-71.11,-13.32
39,154.9,0.0500,-71.94,33.95
40,156.7,0.0500,-70.66,4.03
41,158.5,0.0500,-69.92,5.29
42,160.3,0.0500,-72.52,-5.66
43,162.2,0.0500,-71.78,18.61
44,164.1,0.0500,-72.49,5.02
45,166.0,0.0500,-71.23,3.86
46,167.9,0.0500,-71.02,-3.85
47,169.8,0.0500,-71.49,-2.44
48,171.8,0.0500,-69.90,-4.30
49,173.8,0.0500,-71.57,-2.69
50,175.8,0.0500,-69.78,17.52
51,177.8,0.0500,-71.32,5.70
52,179.9,0.0500,-72.64,-14.00
53,182.0,0.0500,-70.37,-8.61
54,184.1,0.0500,-70.66,3.62
55,186.2,0.0500,-70.62,-3.70
56,188.4,0.0500,-70.33,-10.57
57,190.5,0.0500,-70.34,10.47
58,192.8,0.0500,-71.58,-2.20
59,195.0,0.0500,-72.18,2.36
60,197.2,0.0500,-71.50,20.27
61,199.5,0.0500,-71.99,6.22
62,201.8,0.0500,-70.21,7.69
63,204.2,0.0500,-71.58,10.76
64,206.5,0.0500,-68.66,1.79
65,208.9,0.0500,-70.28,-1.51
66,211.3,0.0500,-71.55,6.59
67,213.8,0.0500,-70.12,12.30
68,216.3,0.0500,-69.76,-5.69
69,218.8,0.0500,-70.13,3.44
70,221.3,0.0500,-70.58,0.47
71,223.9,0.0500,-71.46,8.77
72,226.5,0.0500,-68.94,9.19
73,229.1,0.0500,-68.80,-1.04
74,231.7,0.0500,-69.43,11.44
75,234.4,0.0500,-69.44,14.01
76,237.1,0.0500,-70.66,3.78
77,239.9,0.0500,-70.53,1.07
78,242.7,0.0500,-71.59,9.38
79,245.5,0.0500,-69.33,18.42
80,248.3,0.0500,-69.90,3.25
81,251.2,0.0500,-70.87,0.86
82,254.1,0.0500,-70.70,-2.07
83,257.0,0.0500,-68.93,9.83
84,260.0,0.0500,-68.67,6.63
85,263.0,0.0500,-70.91,7.89
86,266.1,0.0500,-70.56,17.43
87,269.2,0.0500,-69.95,7.62
88,272.3,0.0500,-71.04,2.06
89,275.4,0.0500,-70.10,3.95
90,278.6,0.0500,-70.09,7.24
91,281.8,0.0500,-71.16,-7.10
92,285.1,0.0500,-70.53,16.00
93,288.4,0.0500,-68.88,8.65
94,291.7,0.0500,-72.54,2.16
95,295.1,0.0500,-71.58,6.28
96,298.5,0.0500,-72.18,9.81
97,302.0,0.0500,-71.69,9.87
98,305.5,0.0500,-71.25,9.77
99,309.0,0.0500,-70.92,4.39
100,312.6,0.0500,-70.00,3.18
101,316.2,0.0500,-71.66,-3.73
102,319.9,0.0500,-70.02,0.92
103,323.6,0.0500,-71.52,14.19
104,327.3,0.0500,-68.82,0.35
105,331.1,0.0500,-70.39,-1.25
106,335.0,0.0500,-70.58,4.09
107,338.8,0.0500,-71.25,-14.35
108,342.8,0.0500,-68.27,6.59
109,346.7,0.0500,-69.51,-0.61
110,350.8,0.0500,-70.12,-18.06
111,354.8,0.0500,-69.90,2.04
112,358.9,0.0500,-69.77,-3.84
113,363.1,0.0500,-70.00,1.33
114,367.3,0.0500,-69.67,0.23
115,371.5,0.0500,-70.06,-7.09
116,375.8,0.0500,-68.76,6.63
117,380.2,0.0500,-70.79,5.76
118,384.6,0.0500,-71.28,5.18
119,389.0,0.0500,-69.81,13.15
120,393.6,0.0500,-71.10,-1.73
121,398.1,0.0500,-69.99,12.75
122,402.7,0.0500,-70.24,4.60
123,407.4,0.0500,-69.59,8.90
124,412.1,0.0500,-68.59,4.07
125,416.9,0.0500,-69.46,0.11
126,421.7,0.0500,-70.66,24.98
127,426.6,0.0500,-70.60,15.76
128,431.5,0.0500,-71.09,13.53
129,436.5,0.0500,-69.81,7.67
130,441.6,0.0500,-70.76,12.91
131,446.7,0.0500,-68.78,6.49
132,451.9,0.0500,-68.25,5.58
133,457.1,0.0500,-71.47,-6.57
134,462.4,0.0500,-70.14,2.08
135,467.7,0.0500,-69.18,5.41
136,473.2,0.0500,-71.16,2.19
137,478.6,0.0500,-70.16,15.05
138,484.2,0.0500,-70.09,14.40
139,489.8,0.0500,-70.14,8.82
140,495.5,0.0500,-68.96,14.89
141,501.2,0.0500,-70.57,17.36
142,507.0,0.0500,-68.57,13.26
143,512.9,0.0500,-69.64,13.58
144,518.8,0.0500,-71.64,11.99
145,524.8,0.0500,-69.46,9.58
146,530.9,0.0500,-69.61,0.32
147,537.0,0.0500,-69.16,2.24
148,543.3,0.0500,-68.87,9.59
149,549.5,0.0500,-69.22,11.70
150,555.9,0.0500,-70.72,12.79
151,562.3,0.0500,-69.67,8.52
152,568.9,0.0500,-70.18,17.31
153,575.4,0.0500,-70.04,19.83
154,582.1,0.0500,-70.82,2.00
155,588.8,0.0500,-70.20,1.58
156,595.7,0.0500,-69.28,1.33
157,602.6,0.0500,-70.97,0.22
158,609.5,0.0500,-69.80,5.09
159,616.6,0.0500,-70.70,-0.56
160,623.7,0.0500,-68.42,2.37
161,631.0,0.0500,-69.98,-3.35
162,638.3,0.0500,-69.75,6.34
163,645.7,0.0500,-71.34,11.43
164,653.1,0.0500,-70.09,20.93
165,660.7,0.0500,-67.97,10.90
166,668.3,0.0500,-71.65,-0.07
167,676.1,0.0500,-70.30,-0.52
168,683.9,0.0500,-69.03,7.78
169,691.8,0.0500,-69.60,10.63
170,699.8,0.0500,-70.67,13.24
171,707.9,0.0500,-69.25,1.45
172,716.1,0.0500,-69.39,22.69
173,724.4,0.0500,-70.10,9.45
174,732.8,0.0500,-69.06,8.52
175,741.3,0.0500,-70.25,12.58
176,749.9,0.0500,-73.98,-1.76
177,758.6,0.0500,-72.60,14.76
178,767.4,0.0500,-68.62,21.61
179,776.2,0.0500,-68.74,2.85
180,785.2,0.0500,-69.90,4.69
181,794.3,0.0500,-69.11,18.45
182,803.5,0.0500,-69.83,11.42
183,812.8,0.0500,-68.54,8.58
184,822.2,0.0500,-69.32,11.74
185,831.8,0.0500,-70.46,13.09
186,841.4,0.0500,-70.06,6.61
187,851.1,0.0500,-69.44,10.11
188,861.0,0.0500,-68.62,10.04
189,871.0,0.0500,-69.46,12.95
190,881.0,0.0500,-71.47,10.16
191,891.3,0.0500,-70.81,17.30
192,901.6,0.0500,-69.74,16.06
193,912.0,0.0500,-70.53,14.39
194,922.6,0.0500,-69.18,13.35
195,933.3,0.0500,-68.41,10.03
196,944.1,0.0500,-69.52,2.28
197,955.0,0.0500,-69.33,5.60
198,966.1,0.0500,-67.86,9.19
199,977.2,0.0500,-70.58,24.94
200,988.6,0.0500,-72.60,6.85
201,1000.0,0.0500,-69.06,8.78
202,1011.6,0.0500,-70.49,0.44
203,1023.3,0.0500,-71.10,10.80
204,1035.1,0.0500,-68.26,-7.13
205,1047.1,0.0500,-68.75,22.41
206,1059.3,0.0500,-71.26,7.62
207,1071.5,0.0500,-68.84,9.62
208,1083.9,0.0500,-71.76,2.59
209,1096.5,0.0500,-69.75,14.53
210,1109.2,0.0500,-70.99,5.17
211,1122.0,0.0500,-69.69,14.28
212,1135.0,0.0500,-73.53,6.07
213,1148.2,0.0500,-69.17,11.07
214,1161.4,0.0500,-70.68,7.66
215,1174.9,0.0500,-67.34,2.92
216,1188.5,0.0500,-70.97,0.33
217,1202.3,0.0500,-70.22,10.84
218,1216.2,0.0500,-69.96,9.70
219,1230.3,0.0500,-68.65,13.35
220,1244.5,0.0500,-68.72,13.24
221,1258.9,0.0500,-70.08,9.06
222,1273.5,0.0500,-70.32,18.08
223,1288.2,0.0500,-69.48,17.52
224,1303.2,0.0500,-70.22,26.72
225,1318.3,0.0500,-69.24,4.24
226,1333.5,0.0500,-67.56,25.21
227,1349.0,0.0500,-70.04,14.09
228,1364.6,0.0500,-69.50,20.46
229,1380.4,0.0500,-68.17,25.32
230,1396.4,0.0500,-74.09,6.57
231,1412.5,0.0500,-67.39,13.03
232,1428.9,0.0500,-66.57,24.14
233,1445.4,0.0500,-70.80,10.60
234,1462.2,0.0500,-69.24,31.19
235,1479.1,0.0500,-67.75,9.21
236,1496.2,0.0500,-72.50,6.70
237,1513.6,0.0500,-70.89,27.33
238,1531.1,0.0500,-68.02,0.80
239,1548.8,0.0500,-96.62,-116.78
240,1566.8,0.0500,-71.60,87.54
241,1584.9,0.0500,-67.99,17.31
242,1603.2,0.0500,-69.35,20.59
243,1621.8,0.0500,-73.61,42.27
244,1640.6,0.0500,-65.24,42.24
245,1659.6,0.0500,-71.31,33.81
246,1678.8,0.0500,-69.25,-50.74
247,1698.2,0.0500,-68.19,6.93
248,1717.9,0.0500,-67.49,22.26
249,1737.8,0.0500,-71.06,48.68
250,1757.9,0.0500,-67.32,21.01
251,1778.3,0.0500,-74.09,22.42
252,1798.9,0.0500,-67.54,37.29
253,1819.7,0.0500,-67.32,26.80
254,1840.8,0.0500,-74.28,2.46
255,1862.1,0.0500,-66.42,19.13
256,1883.6,0.0500,-70.63,4.70
257,1905.5,0.0500,-77.41,51.09
258,1927.5,0.0500,-65.90,10.71
259,1949.8,0.0500,-69.54,41.83
260,1972.4,0.0500,-70.86,-17.38
261,1995.3,0.0500,-69.29,12.79
262,2018.4,0.0500,-67.55,29.81
263,2041.7,0.0500,-70.05,27.74
264,2065.4,0.0500,-67.51,11.74
265,2089.3,0.0500,-69.72,27.31
266,2113.5,0.0500,-68.87,24.40
267,2138.0,0.0500,-68.83,17.49
268,2162.7,0.0500,-68.57,15.96
269,2187.8,0.0500,-68.05,26.74
270,2213.1,0.0500,-67.69,19.61
271,2238.7,0.0500,-69.47,31.49
272,2264.6,0.0500,-70.10,25.05
273,2290.9,0.0500,-69.57,37.05
274,2317.4,0.0500,-68.47,31.11
275,2344.2,0.0500,-68.07,24.93
276,2371.4,0.0500,-68.32,16.96
277,2398.8,0.0500,-66.51,53.07
278,2426.6,0.0500,-68.71,41.06
279,2454.7,0.0500,-66.95,22.91
280,2483.1,0.0500,-66.93,23.30
281,2511.9,0.0500,-71.72,33.06
282,2541.0,0.0500,-66.29,35.60
283,2570.4,0.0500,-70.03,25.00
284,2600.2,0.0500,-68.76,30.40
285,2630.3,0.0500,-68.97,37.73
286,2660.7,0.0500,-68.05,36.55
287,2691.5,0.0500,-66.20,22.39
288,2722.7,0.0500,-69.17,21.08
289,2754.2,0.0500,-69.26,34.10
290,2786.1,0.0500,-69.42,14.72
291,2818.4,0.0500,-67.95,44.69
292,2851.0,0.0500,-67.90,29.82
293,2884.0,0.0500,-67.85,26.28
294,2917.4,0.0500,-67.16,36.85
295,2951.2,0.0500,-68.37,38.19
296,2985.4,0.0500,-66.76,33.21
297,3020.0,0.0500,-69.42,18.46
298,3054.9,0.0500,-67.37,30.26
299,3090.3,0.0500,-68.63,32.04
300,3126.1,0.0500,-69.89,36.34
301,3162.3,0.0500,-68.10,23.73
302,3198.9,0.0500,-71.25,34.75
303,3235.9,0.0500,-67.14,35.76
304,3273.4,0.0500,-69.17,22.15
305,3311.3,0.0500,-67.69,41.82
306,3349.7,0.0500,-68.67,20.59
307,3388.4,0.0500,-68.16,21.60
308,3427.7,0.0500,-66.06,27.12
309,3467.4,0.0500,-67.82,43.88
310,3507.5,0.0500,-65.77,22.08
311,3548.1,0.0500,-65.62,45.33
312,3589.2,0.0500,-65.14,42.94
313,3630.8,0.0500,-67.98,59.89
314,3672.8,0.0500,-63.26,48.58
315,3715.4,0.0500,-66.17,28.10
316,3758.4,0.0500,-68.24,28.37
317,3801.9,0.0500,-67.91,28.60
318,3845.9,0.0500,-70.99,53.12
319,3890.5,0.0500,-65.86,38.10
320,3935.5,0.0500,-69.28,35.76
321,3981.1,0.0500,-67.76,36.35
322,4027.2,0.0500,-68.37,46.88
323,4073.8,0.0500,-68.42,44.09
324,4121.0,0.0500,-66.57,30.77
325,4168.7,0.0500,-66.52,22.50
326,4217.0,0.0500,-66.29,36.59
327,4265.8,0.0500,-68.47,36.59
328,4315.2,0.0500,-67.65,45.86
329,4365.2,0.0500,-67.30,40.61
330,4415.7,0.0500,-67.06,28.49
331,4466.8,0.0500,-67.28,47.31
332,4518.6,0.0500,-67.74,53.70
333,4570.9,0.0500,-68.83,46.19
334,4623.8,0.0500,-66.52,30.27
335,4677.4,0.0500,-65.80,39.66
336,4731.5,0.0500,-66.61,40.49
337,4786.3,0.0500,-65.56,37.28
338,4841.7,0.0500,-66.10,38.59
339,4897.8,0.0500,-66.43,38.67
340,4954.5,0.0500,-69.58,38.91
341,5011.9,0.0500,-66.25,45.58
342,5069.9,0.0500,-66.00,31.87
343,5128.6,0.0500,-67.04,64.50
344,5188.0,0.0500,-65.77,51.14
345,5248.1,0.0500,-66.72,42.43
346,5308.8,0.0500,-67.42,39.64
347,5370.3,0.0500,-66.17,62.18
348,5432.5,0.0500,-65.72,49.91
349,5495.4,0.0500,-66.88,44.38
350,5559.0,0.0500,-65.15,66.98
351,5623.4,0.0500,-64.79,34.75
352,5688.5,0.0500,-65.53,42.81
353,5754.4,0.0500,-65.18,38.17
354,5821.0,0.0500,-66.39,53.12
355,5888.4,0.0500,-66.72,63.36
356,5956.6,0.0500,-65.94,52.64
357,6025.6,0.0500,-67.13,48.41
358,6095.4,0.0500,-65.52,25.37
359,6166.0,0.0500,-66.93,28.87
360,6237.3,0.0500,-63.66,48.78
361,6309.6,0.0500,-65.45,44.34
362,6382.6,0.0500,-66.90,49.10
363,6456.5,0.0500,-65.93,44.53
364,6531.3,0.0500,-64.92,49.44
365,6606.9,0.0500,-65.99,53.32
366,6683.4,0.0500,-65.24,52.62
367,6760.8,0.0500,-66.14,73.91
368,6839.1,0.0500,-64.95,49.65
369,6918.3,0.0500,-65.46,60.02
370,6998.4,0.0500,-64.22,77.62
371,7079.5,0.0500,-65.94,65.67
372,7161.4,0.0500,-64.55,57.16
373,7244.4,0.0500,-66.35,63.37
374,7328.2,0.0500,-70.37,75.84
375,7413.1,0.0500,-63.66,54.29
376,7498.9,0.0500,-62.69,49.53
377,7585.8,0.0500,-63.77,62.45
378,7673.6,0.0500,-64.57,58.67
379,7762.5,0.0500,-65.72,76.66
380,7852.4,0.0500,-63.92,54.45
381,7943.3,0.0500,-65.37,51.92
382,8035.3,0.0500,-68.82,72.29
383,8128.3,0.0500,-64.26,58.87
384,8222.4,0.0500,-64.17,50.80
385,8317.6,0.0500,-64.25,50.49
386,8414.0,0.0500,-63.64,64.85
387,8511.4,0.0500,-62.59,57.94
388,8609.9,0.0500,-63.23,58.70
389,8709.6,0.0500,-64.50,57.55
390,8810.5,0.0500,-63.82,58.83
391,8912.5,0.0500,-64.76,57.89
392,9015.7,0.0500,-62.48,54.57
393,9120.1,0.0500,-64.14,56.92
394,9225.7,0.0500,-64.53,55.88
395,9332.5,0.0500,-61.66,65.53
396,9440.6,0.0500,-64.25,59.34
397,9549.9,0.0500,-63.78,53.37
398,9660.5,0.0500,-62.93,60.51
399,9772.4,0.0500,-63.69,60.52
400,9885.5,0.0500,-63.82,64.94
401,10000.0,0.0500,-63.05,62.42
402,10115.8,0.0500,-62.41,64.59
403,10232.9,0.0500,-62.90,62.94
404,10351.4,0.0500,-62.13,62.08
405,10471.3,0.0500,-62.47,58.80
406,10592.5,0.0500,-63.55,64.61
407,10715.2,0.0500,-62.60,65.83
408,10839.3,0.0500,-62.28,61.98
409,10964.8,0.0500,-62.50,57.40
410,11091.7,0.0500,-61.97,62.11
411,11220.2,0.0500,-62.46,66.12
412,11350.1,0.0500,-61.85,63.44
413,11481.5,0.0500,-62.15,70.18
414,11614.5,0.0500,-62.86,68.67
415,11749.0,0.0500,-61.27,60.53
416,11885.0,0.0500,-62.57,62.25
417,12022.6,0.0500,-62.34,73.64
418,12161.9,0.0500,-61.70,60.96
419,12302.7,0.0500,-61.70,68.44
420,12445.1,0.0500,-61.02,62.88
421,12589.3,0.0500,-62.10,72.38
422,12735.0,0.0500,-61.78,70.07
423,12882.5,0.0500,-62.20,65.40
424,13031.7,0.0500,-61.77,67.21
425,13182.6,0.0500,-61.26,61.00
426,13335.2,0.0500,-60.71,68.36
427,13489.6,0.0500,-60.91,71.82
428,13645.8,0.0500,-60.60,65.32
429,13803.8,0.0500,-61.24,69.14
430,13963.7,0.0500,-60.28,71.54
431,14125.4,0.0500,-60.50,67.81
432,14288.9,0.0500,-60.32,59.67
433,14454.4,0.0500,-60.38,65.40
434,14621.8,0.0500,-60.58,73.18
435,14791.1,0.0500,-60.46,64.97
436,14962.4,0.0500,-60.16,72.08
437,15135.6,0.0500,-59.97,70.21
438,15310.9,0.0500,-60.43,71.65
439,15488.2,0.0500,-60.01,71.67
440,15667.5,0.0500,-60.17,71.67
441,15848.9,0.0500,-59.49,68.74
442,16032.5,0.0500,-59.82,67.98
443,16218.1,0.0500,-59.52,68.01
444,16405.9,0.0500,-58.09,71.33
445,16595.9,0.0500,-59.92,74.71
446,16788.0,0.0500,-59.78,72.06
447,16982.4,0.0500,-60.22,71.55
448,17179.1,0.0500,-60.56,70.80
449,17378.0,0.0500,-58.74,69.57
450,17579.2,0.0500,-58.99,72.50
451,17782.8,0.0500,-59.01,71.19
452,17988.7,0.0500,-58.96,73.01
453,18197.0,0.0500,-58.98,70.73
454,18407.7,0.0500,-59.07,70.76
455,18620.9,0.0500,-58.70,69.62
456,18836.5,0.0500,-58.71,71.96
457,19054.6,0.0500,-59.25,72.78
458,19275.2,0.0500,-58.39,74.90
459,19498.4,0.0500,-58.60,71.60
460,19724.2,0.0500,-57.65,71.09
461,19952.6,0.0500,-57.84,74.17
462,20183.7,0.0500,-58.19,75.43
463,20417.4,0.0500,-58.44,74.31
464,20653.8,0.0500,-58.17,73.46
465,20893.0,0.0500,-57.62,71.74
466,21134.9,0.0500,-57.08,66.11
467,21379.6,0.0500,-57.18,74.44
468,21627.2,0.0500,-57.12,76.20
469,21877.6,0.0500,-57.88,74.09
470,22130.9,0.0500,-57.48,71.84
471,22387.2,0.0500,-56.97,71.31
472,22646.4,0.0500,-57.20,74.86
473,22908.7,0.0500,-56.79,73.29
474,23173.9,0.0500,-57.04,74.19
475,23442.3,0.0500,-56.31,74.38
476,23713.7,0.0500,-56.68,76.02
477,23988.3,0.0500,-56.58,73.86
478,24266.1,0.0500,-56.42,74.35
479,24547.1,0.0500,-56.63,72.36
480,24831.3,0.0500,-56.73,74.62
481,25118.9,0.0500,-55.93,76.86
482,25409.7,0.0500,-55.87,75.98
483,25704.0,0.0500,-56.17,74.53
484,26001.6,0.0500,-55.71,74.76
485,26302.7,0.0500,-55.85,73.90
486,26607.3,0.0500,-55.68,76.59
487,26915.3,0.0500,-55.32,75.17
488,27227.0,0.0500,-55.69,75.67
489,27542.3,0.0500,-55.30,74.52
490,27861.2,0.0500,-55.38,76.06
491,28183.8,0.0500,-55.34,78.00
492,28510.2,0.0500,-55.51,76.57
493,28840.3,0.0500,-55.00,77.90
494,29174.3,0.0500,-55.10,78.82
495,29512.1,0.0500,-54.98,78.55
496,29853.8,0.0500,-54.65,75.90
497,30199.5,0.0500,-54.35,77.13
498,30549.2,0.0500,-54.22,78.27
499,30903.0,0.0500,-54.19,77.12
500,31260.8,0.0500,-54.33,77.09
501,31622.8,0.0500,-54.07,76.42
502,31989.0,0.0500,-54.30,77.54
503,32359.4,0.0500,-54.16,77.58
504,32734.1,0.0500,-54.24,78.95
505,33113.1,0.0500,-54.10,77.49
506,33496.5,0.0500,-53.75,78.83
507,33884.4,0.0500,-53.90,77.44
508,34276.8,0.0500,-53.65,78.04
509,34673.7,0.0500,-53.89,77.75
510,35075.2,0.0500,-53.64,78.41
511,35481.3,0.0500,-53.20,80.86
512,35892.2,0.0500,-53.20,77.39
513,36307.8,0.0500,-52.95,80.65
514,36728.2,0.0500,-53.10,78.77
515,37153.5,0.0500,-52.66,75.66
516,37583.7,0.0500,-52.65,79.88
517,38018.9,0.0500,-52.79,79.14
518,38459.2,0.0500,-52.74,80.62
519,38904.5,0.0500,-52.49,80.35
520,39355.0,0.0500,-52.67,80.66
521,39810.7,0.0500,-52.59,80.26
522,40271.7,0.0500,-52.03,81.14
523,40738.0,0.0500,-52.42,78.57
524,41209.8,0.0500,-51.98,79.15
525,41686.9,0.0500,-51.77,80.37
526,42169.7,0.0500,-52.07,79.61
527,42658.0,0.0500,-51.50,81.19
528,43151.9,0.0500,-51.64,80.02
529,43651.6,0.0500,-51.64,81.07
530,44157.0,0.0500,-51.20,79.83
531,44668.4,0.0500,-51.02,79.34
532,45185.6,0.0500,-51.24,80.85
533,45708.8,0.0500,-51.02,79.06
534,46238.1,0.0500,-51.13,81.95
535,46773.5,0.0500,-50.83,81.00
536,47315.1,0.0500,-50.65,80.39
537,47863.0,0.0500,-50.85,77.80
538,48417.2,0.0500,-50.48,77.77
539,48977.9,0.0500,-50.16,80.54
540,49545.0,0.0500,-50.41,79.17
541,50118.7,0.0500,-50.10,83.61
542,50699.1,0.0500,-49.87,81.81
543,51286.1,0.0500,-50.12,81.25
544,51880.0,0.0500,-49.57,81.99
545,52480.7,0.0500,-49.84,80.10
546,53088.4,0.0500,-49.84,83.23
547,53703.2,0.0500,-49.78,78.95
548,54325.0,0.0500,-49.70,81.51
549,54954.1,0.0500,-49.31,78.14
550,55590.4,0.0500,-49.21,81.63
551,56234.1,0.0500,-49.28,78.31
552,56885.3,0.0500,-49.07,79.26
553,57544.0,0.0500,-49.06,77.38
554,58210.3,0.0500,-48.89,78.71
555,58884.4,0.0500,-49.19,78.13
556,59566.2,0.0500,-49.41,76.64
557,60256.0,0.0500,-48.42,77.85
558,60953.7,0.0500,-48.64,79.46
559,61659.5,0.0500,-48.70,81.35
560,62373.5,0.0500,-49.04,81.99
561,63095.7,0.0500,-48.78,78.37
562,63826.3,0.0500,-48.82,79.10
563,64565.4,0.0500,-48.20,76.92
564,65313.1,0.0500,-48.30,81.15
565,66069.3,0.0500,-47.50,82.65
566,66834.4,0.0500,-47.86,79.61
567,67608.3,0.0500,-48.61,81.20
568,68391.2,0.0500,-48.13,81.38
569,69183.1,0.0500,-47.32,81.04
570,69984.2,0.0500,-47.97,81.18
571,70794.6,0.0500,-47.98,80.69
572,71614.3,0.0500,-47.54,79.33
573,72443.6,0.0500,-47.46,79.57
574,73282.5,0.0500,-47.15,79.38
575,74131.0,0.0500,-47.34,80.30
576,74989.4,0.0500,-47.07,79.37
577,75857.8,0.0500,-46.72,81.92
578,76736.1,0.0500,-46.93,80.33
579,77624.7,0.0500,-46.77,80.30
580,78523.6,0.0500,-46.73,80.88
581,79432.8,0.0500,-46.44,80.14
582,80352.6,0.0500,-46.58,81.39
583,81283.1,0.0500,-46.07,80.70
584,82224.3,0.0500,-46.25,80.60
585,83176.4,0.0500,-46.35,81.03
586,84139.5,0.0500,-46.20,79.21
587,85113.8,0.0500,-46.21,79.06
588,86099.4,0.0500,-45.82,82.37
589,87096.4,0.0500,-45.64,81.43
590,88104.9,0.0500,-45.97,80.84
591,89125.1,0.0500,-45.64,81.30
592,90157.1,0.0500,-45.69,80.85
593,91201.1,0.0500,-45.58,80.35
594,92257.1,0.0500,-45.51,80.74
595,93325.4,0.0500,-45.08,81.67
596,94406.1,0.0500,-45.13,80.82
597,95499.3,0.0500,-45.24,79.75
598,96605.1,0.0500,-44.91,81.39
599,97723.7,0.0500,-45.10,80.22
600,98855.3,0.0500,-44.97,81.05
601,100000.0,0.0500,-44.47,80.74
602,101157.9,0.0500,-44.62,80.14
603,102329.3,0.0500,-44.54,80.52
604,103514.2,0.0500,-44.44,81.87
605,104712.9,0.0500,-44.37,79.23
606,105925.4,0.0500,-44.32,79.67
607,107151.9,0.0500,-44.26,81.57
608,108392.7,0.0500,-43.99,82.88
609,109647.8,0.0500,-43.90,81.37
610,110917.5,0.0500,-44.08,82.11
611,112201.8,0.0500,-43.80,81.47
612,113501.1,0.0500,-43.65,81.68
613,114815.4,0.0500,-43.32,79.59
614,116144.9,0.0500,-43.72,82.78
615,117489.8,0.0500,-43.38,81.79
616,118850.2,0.0500,-43.33,82.51
617,120226.4,0.0500,-43.44,81.00
618,121618.6,0.0500,-42.95,81.75
619,123026.9,0.0500,-42.77,80.98
620,124451.5,0.0500,-42.59,82.84
621,125892.5,0.0500,-42.85,83.46
622,127350.3,0.0500,-42.75,79.55
623,128825.0,0.0500,-42.30,81.51
624,130316.7,0.0500,-42.29,81.12
625,131825.7,0.0500,-42.26,80.32
626,133352.1,0.0500,-42.32,81.32
627,134896.3,0.0500,-42.53,83.93
628,136458.3,0.0500,-42.17,81.18
629,138038.4,0.0500,-41.87,82.55
630,139636.8,0.0500,-42.06,78.58
631,141253.8,0.0500,-41.87,85.25
632,142889.4,0.0500,-41.81,90.33
633,144544.0,0.0500,-41.17,80.61
634,146217.7,0.0500,-41.51,81.05
635,147910.8,0.0500,-41.38,81.74
636,149623.6,0.0500,-41.30,80.87
637,151356.1,0.0500,-41.12,81.40
638,153108.7,0.0500,-40.49,80.70
639,154881.7,0.0500,-41.05,83.12
640,156675.1,0.0500,-40.94,78.52
641,158489.3,0.0500,-40.80,76.02
642,160324.5,0.0500,-39.98,84.02
643,162181.0,0.0500,-40.08,76.88
644,164059.0,0.0500,-40.39,80.17
645,165958.7,0.0500,-41.12,81.87
646,167880.4,0.0500,-40.18,81.44
647,169824.4,0.0500,-40.38,80.88
648,171790.8,0.0500,-40.04,81.64
649,173780.1,0.0500,-39.83,80.83
650,175792.4,0.0500,-39.79,77.88
651,177827.9,0.0500,-39.89,80.51
652,179887.1,0.0500,-39.63,81.13
653,181970.1,0.0500,-39.58,80.64
654,184077.2,0.0500,-39.23,80.21
655,186208.7,0.0500,-39.41,81.74
656,188364.9,0.0500,-39.76,82.10
657,190546.1,0.0500,-39.73,88.97
658,192752.5,0.0500,-38.88,78.50
659,194984.5,0.0500,-38.84,81.56
660,197242.3,0.0500,-39.13,78.94
661,199526.2,0.0500,-38.68,81.64
662,201836.6,0.0500,-38.59,79.61
663,204173.8,0.0500,-39.07,79.81
664,206538.0,0.0500,-38.21,79.87
665,208929.6,0.0500,-38.63,80.58
666,211348.9,0.0500,-38.26,80.68
667,213796.2,0.0500,-37.95,80.73
668,216271.9,0.0500,-37.98,80.65
669,218776.2,0.0500,-37.93,77.78
670,221309.5,0.0500,-37.71,80.62
671,223872.1,0.0500,-37.61,80.66
672,226464.4,0.0500,-37.35,81.15
673,229086.8,0.0500,-36.96,78.55
674,231739.5,0.0500,-37.44,83.47
675,234422.9,0.0500,-36.90,80.35
676,237137.4,0.0500,-36.87,79.40
677,239883.3,0.0500,-36.91,80.99
678,242661.0,0.0500,-36.75,80.82
679,245470.9,0.0500,-36.84,84.69
680,248313.3,0.0500,-36.29,80.88
681,251188.6,0.0500,-36.33,82.31
682,254097.3,0.0500,-36.38,78.55
683,257039.6,0.0500,-36.29,77.24
684,260016.0,0.0500,-36.06,79.91
685,263026.8,0.0500,-35.95,78.90
686,266072.5,0.0500,-35.78,84.38
687,269153.5,0.0500,-35.66,79.42
688,272270.1,0.0500,-35.60,79.50
689,275422.9,0.0500,-35.14,79.05
690,278612.1,0.0500,-35.47,79.36
691,281838.3,0.0500,-35.15,77.20
692,285101.8,0.0500,-34.94,78.75
693,288403.2,0.0500,-35.05,79.24
694,291742.7,0.0500,-34.80,78.65
695,295120.9,0.0500,-34.75,78.66
696,298538.3,0.0500,-34.60,78.28
697,301995.2,0.0500,-34.48,77.87
698,305492.1,0.0500,-34.61,78.60
699,309029.5,0.0500,-34.25,78.51
700,312607.9,0.0500,-34.28,78.00
701,316227.8,0.0500,-34.06,78.51
702,319889.5,0.0500,-33.83,78.31
703,323593.7,0.0500,-33.70,78.01
704,327340.7,0.0500,-33.55,77.58
705,331131.1,0.0500,-33.28,76.36
706,334965.4,0.0500,-33.39,77.80
707,338844.2,0.0500,-33.18,76.86
708,342767.8,0.0500,-33.45,75.48
709,346736.9,0.0500,-32.27,74.64
710,350751.9,0.0500,-32.76,77.65
711,354813.4,0.0500,-32.53,77.06
712,358921.9,0.0500,-32.73,76.42
713,363078.1,0.0500,-32.28,77.16
714,367282.3,0.0500,-32.21,76.83
715,371535.2,0.0500,-32.24,75.10
716,375837.4,0.0500,-31.95,75.94
717,380189.4,0.0500,-31.72,76.21
718,384591.8,0.0500,-31.59,76.53
719,389045.1,0.0500,-31.34,75.31
720,393550.1,0.0500,-31.42,75.26
721,398107.2,0.0500,-30.60,76.24
722,402717.0,0.0500,-30.68,75.05
723,407380.3,0.0500,-30.61,74.83
724,412097.5,0.0500,-30.69,69.80
725,416869.4,0.0500,-30.45,72.89
726,421696.5,0.0500,-30.18,73.70
727,426579.5,0.0500,-29.94,73.59
728,431519.1,0.0500,-29.96,72.10
729,436515.8,0.0500,-29.80,71.79
730,441570.4,0.0500,-29.40,70.94
731,446683.6,0.0500,-29.17,70.30
732,451855.9,0.0500,-30.25,66.02
733,457088.2,0.0500,-29.36,64.49
734,462381.0,0.0500,-28.34,68.96
735,467735.1,0.0500,-28.26,68.22
736,473151.3,0.0500,-28.16,66.36
737,478630.1,0.0500,-27.72,66.39
738,484172.4,0.0500,-27.63,62.75
739,489778.8,0.0500,-27.44,61.80
740,495450.2,0.0500,-26.80,65.31
741,501187.2,0.0500,-27.23,61.09
742,506990.7,0.0500,-26.49,56.12
743,512861.4,0.0500,-26.32,54.79
744,518800.0,0.0500,-26.40,50.02
745,524807.5,0.0500,-26.07,46.53
746,530884.4,0.0500,-26.47,41.06
747,537031.8,0.0500,-26.65,37.32
748,543250.3,0.0500,-27.84,36.37
749,549540.9,0.0500,-27.57,31.48
750,555904.3,0.0500,-28.14,31.12
751,562341.3,0.0500,-29.00,31.11
752,568852.9,0.0500,-29.78,32.80
753,575439.9,0.0500,-30.19,35.27
754,582103.2,0.0500,-30.18,39.64
755,588843.7,0.0500,-30.63,38.71
756,595662.1,0.0500,-30.51,47.56
757,602559.6,0.0500,-31.88,45.34
758,609536.9,0.0500,-30.45,51.26
759,616595.0,0.0500,-30.21,53.16
760,623734.8,0.0500,-30.24,54.50
761,630957.3,0.0500,-30.52,57.36
762,638263.5,0.0500,-29.52,58.08
763,645654.2,0.0500,-29.09,61.82
764,653130.6,0.0500,-28.86,57.97
765,660693.4,0.0500,-28.62,58.74
766,668343.9,0.0500,-28.23,60.20
767,676083.0,0.0500,-28.42,60.32
768,683911.6,0.0500,-27.92,63.25
769,691831.0,0.0500,-27.41,62.21
770,699842.0,0.0500,-27.11,61.36
771,707945.8,0.0500,-27.14,63.47
772,716143.4,0.0500,-26.66,62.21
773,724436.0,0.0500,-26.94,67.75
774,732824.5,0.0500,-26.29,57.26
775,741310.2,0.0500,-26.27,60.65
776,749894.2,0.0500,-25.99,58.85
777,758577.6,0.0500,-25.18,58.23
778,767361.5,0.0500,-24.94,59.84
779,776247.1,0.0500,-24.63,56.11
780,785235.6,0.0500,-24.20,56.19
781,794328.2,0.0500,-24.20,60.20
782,803526.1,0.0500,-23.93,59.00
783,812830.5,0.0500,-23.38,54.41
784,822242.6,0.0500,-24.10,55.29
785,831763.8,0.0500,-23.29,53.11
786,841395.1,0.0500,-22.24,55.27
787,851138.0,0.0500,-22.39,54.28
788,860993.8,0.0500,-22.05,49.32
789,870963.6,0.0500,-21.72,53.89
790,881048.9,0.0500,-21.27,55.52
791,891250.9,0.0500,-20.75,52.62
792,901571.1,0.0500,-20.76,42.66
793,912010.8,0.0500,-19.97,45.73
794,922571.4,0.0500,-19.65,47.15
795,933254.3,0.0500,-19.84,42.14
796,944060.9,0.0500,-19.02,41.90
797,954992.6,0.0500,-17.68,40.11
798,966050.9,0.0500,-18.53,38.63
799,977237.2,0.0500,-18.30,42.73
800,988553.1,0.0500,-17.38,36.64
801,1000000.0,0.0500,-17.24,29.27
802,1011579.5,0.0500,-16.59,25.05
803,1023293.0,0.0500,-16.38,23.72
804,1035142.2,0.0500,-16.74,15.16
805,1047128.5,0.0500,-15.78,16.60
806,1059253.7,0.0500,-15.55,13.87
807,1071519.3,0.0500,-15.00,12.34
808,1083926.9,0.0500,-15.21,5.20
809,1096478.2,0.0500,-15.32,2.76
810,1109174.8,0.0500,-14.36,-3.06
811,1122018.5,0.0500,-14.80,-9.28
812,1135010.8,0.0500,-15.01,-9.71
813,1148153.6,0.0500,-14.79,-13.86
814,1161448.6,0.0500,-14.29,-24.52
815,1174897.6,0.0500,-14.22,-27.71
816,1188502.2,0.0500,-15.05,-34.76
817,1202264.4,0.0500,-14.76,-39.51
818,1216186.0,0.0500,-15.22,-44.80
819,1230268.8,0.0500,-15.33,-47.55
820,1244514.6,0.0500,-15.58,-50.12
821,1258925.4,0.0500,-16.25,-57.05
822,1273503.1,0.0500,-16.18,-62.17
823,1288249.6,0.0500,-16.83,-58.03
824,1303166.8,0.0500,-18.23,-58.97
825,1318256.7,0.0500,-18.20,-64.68
826,1333521.4,0.0500,-19.01,-65.69
827,1348962.9,0.0500,-18.53,-68.53
828,1364583.1,0.0500,-19.99,-72.20
829,1380384.3,0.0500,-20.54,-76.38
830,1396368.4,0.0500,-19.66,-76.12
831,1412537.5,0.0500,-19.84,-76.76
832,1428894.0,0.0500,-20.75,-85.12
833,1445439.8,0.0500,-20.85,-82.94
834,1462177.2,0.0500,-22.27,-75.63
835,1479108.4,0.0500,-21.17,-84.80
836,1496235.7,0.0500,-21.30,-87.57
837,1513561.2,0.0500,-22.51,-83.99
838,1531087.5,0.0500,-22.83,-94.00
839,1548816.6,0.0500,-23.07,-91.62
840,1566751.1,0.0500,-21.50,-102.92
841,1584893.2,0.0500,-24.05,-91.56
842,1603245.4,0.0500,-23.75,-86.90
843,1621810.1,0.0500,-24.57,-97.65
844,1640589.8,0.0500,-31.27,-71.57
845,1659586.9,0.0500,-26.47,-101.95
846,1678804.0,0.0500,-25.77,-94.39
847,1698243.7,0.0500,-25.76,-104.67
848,1717908.4,0.0500,-25.46,-95.30
849,1737800.8,0.0500,-27.59,-100.90
850,1757923.6,0.0500,-26.34,-109.11
851,1778279.4,0.0500,-26.31,-104.42
852,1798870.9,0.0500,-27.58,-82.36
853,1819700.9,0.0500,-27.86,-111.63
854,1840772.0,0.0500,-27.37,-101.04
855,1862087.1,0.0500,-27.55,-72.45
856,1883649.1,0.0500,-27.23,-120.52
857,1905460.7,0.0500,-33.55,-140.30
858,1927524.9,0.0500,-33.43,-127.23
859,1949844.6,0.0500,-39.22,-106.52
860,1972422.7,0.0500,-34.57,-55.07
861,1995262.3,0.0500,-35.61,-99.56
862,2018366.4,0.0500,-41.81,-45.77
863,2041737.9,0.0500,-33.79,-35.31
864,2065380.2,0.0500,-34.22,-74.06
865,2089296.1,0.0500,-29.92,-41.14
866,2113489.0,0.0500,-30.15,-44.02
867,2137962.1,0.0500,-26.24,-70.61
868,2162718.5,0.0500,-27.70,-67.33
869,2187761.6,0.0500,-27.46,-67.15
870,2213094.7,0.0500,-26.80,-61.67
871,2238721.1,0.0500,-28.55,-75.11
872,2264644.3,0.0500,-28.38,-83.09
873,2290867.7,0.0500,-28.77,-86.73
874,2317394.6,0.0500,-29.04,-85.44
875,2344228.8,0.0500,-29.53,-112.07
876,2371373.7,0.0500,-28.93,-87.56
877,2398832.9,0.0500,-29.72,-88.13
878,2426610.1,0.0500,-27.71,-85.34
879,2454708.9,0.0500,-30.75,-80.51
880,2483133.1,0.0500,-31.82,-95.34
881,2511886.4,0.0500,-29.56,-100.61
882,2540972.7,0.0500,-29.28,-94.33
883,2570395.8,0.0500,-31.93,-88.57
884,2600159.6,0.0500,-31.00,-105.80
885,2630268.0,0.0500,-38.94,17.50
886,2660725.1,0.0500,-32.41,-90.51
887,2691534.8,0.0500,-32.88,-116.66
888,2722701.3,0.0500,-35.68,-98.65
889,2754228.7,0.0500,-34.34,-113.98
890,2786121.2,0.0500,-35.28,-111.72
891,2818382.9,0.0500,-32.90,-109.06
892,2851018.3,0.0500,-34.41,-111.25
893,2884031.5,0.0500,-36.56,-94.91
894,2917427.0,0.0500,-34.24,-101.34
895,2951209.2,0.0500,-33.42,-46.76
896,2985382.6,0.0500,-29.91,-82.55
897,3019951.7,0.0500,-37.57,0.65
898,3054921.1,0.0500,-34.94,-81.43
899,3090295.4,0.0500,-35.40,-71.11
900,3126079.4,0.0500,-34.79,-12.37
901,3162277.7,0.0500,-33.19,-87.20
902,3198895.1,0.0500,-35.19,-62.25
903,3235936.6,0.0500,-32.48,-92.44
904,3273406.9,0.0500,-35.33,-96.96
905,3311311.2,0.0500,-31.79,-76.98
906,3349654.4,0.0500,-36.05,-100.54
907,3388441.6,0.0500,-23.47,170.66
908,3427677.9,0.0500,-29.16,76.20
909,3467368.5,0.0500,-34.71,-116.93
910,3507518.7,0.0500,-34.83,-103.85
911,3548133.9,0.0500,-32.45,-80.18
912,3589219.3,0.0500,-22.85,-72.70
913,3630780.5,0.0500,-35.37,-113.28
914,3672823.0,0.0500,-26.39,-96.89
915,3715352.3,0.0500,-32.04,-48.07
916,3758374.0,0.0500,-33.05,-145.42
917,3801894.0,0.0500,-22.65,-84.32
918,3845917.8,0.0500,-38.66,-90.55
919,3890451.4,0.0500,-33.52,-110.53
920,3935500.8,0.0500,-39.74,-71.57
921,3981071.7,0.0500,-35.95,-99.08
922,4027170.3,0.0500,-34.99,-82.42
923,4073802.8,0.0500,-33.10,-111.07
924,4120975.2,0.0500,-21.10,-61.17
925,4168693.8,0.0500,-35.71,-107.87
926,4216965.0,0.0500,-35.77,-108.80
927,4265795.2,0.0500,-23.51,102.65
928,4315190.8,0.0500,-36.19,-114.68
929,4365158.3,0.0500,-41.76,-104.23
930,4415704.5,0.0500,-32.08,-116.53
931,4466835.9,0.0500,-36.81,-154.38
932,4518559.4,0.0500,-42.44,-107.21
933,4570881.9,0.0500,-34.88,-72.02
934,4623810.2,0.0500,-39.25,-83.43
935,4677351.4,0.0500,-42.59,-112.92
936,4731512.6,0.0500,-41.78,-115.45
937,4786300.9,0.0500,-37.16,-108.69
938,4841723.7,0.0500,-41.47,-86.83
939,4897788.2,0.0500,-40.57,-107.50
940,4954501.9,0.0500,-40.29,-91.15
941,5011872.3,0.0500,-39.96,-113.65
942,5069907.1,0.0500,-40.26,-95.44
943,5128613.8,0.0500,-37.97,-88.01
944,5188000.4,0.0500,-36.75,-96.12
945,5248074.6,0.0500,-34.21,-114.71
946,5308844.4,0.0500,-41.38,-112.97
947,5370318.0,0.0500,-41.44,-91.20
948,5432503.3,0.0500,-43.28,-94.11
949,5495408.7,0.0500,-50.34,-60.74
950,5559042.6,0.0500,-42.90,-94.32
951,5623413.3,0.0500,-39.89,-77.99
952,5688529.3,0.0500,-38.44,-92.82
953,5754399.4,0.0500,-39.52,-110.33
954,5821032.2,0.0500,-44.16,-129.56
955,5888436.6,0.0500,-39.16,-112.63
956,5956621.4,0.0500,-43.05,-128.09
957,6025595.9,0.0500,-39.21,119.19
958,6095369.0,0.0500,-43.94,-136.89
959,6165950.0,0.0500,-37.35,-143.75
960,6237348.4,0.0500,-39.03,-108.92
961,6309573.4,0.0500,-38.78,-93.55
962,6382634.9,0.0500,-46.89,-129.77
963,6456542.3,0.0500,-49.82,-96.98
964,6531305.5,0.0500,-45.58,-119.97
965,6606934.5,0.0500,-44.97,-83.28
966,6683439.2,0.0500,-42.16,-102.96
967,6760829.8,0.0500,-42.30,-97.16
968,6839116.5,0.0500,-44.37,-98.48
969,6918309.7,0.0500,-55.44,149.81
970,6998420.0,0.0500,-45.96,-156.07
971,7079457.8,0.0500,-41.80,-134.72
972,7161434.1,0.0500,-51.22,-110.21
973,7244359.6,0.0500,-46.60,-83.76
974,7328245.3,0.0500,-43.97,-73.77
975,7413102.4,0.0500,-46.11,-97.63
976,7498942.1,0.0500,-49.04,-35.53
977,7585775.8,0.0500,-46.57,-34.40
978,7673614.9,0.0500,-44.79,-81.15
979,7762471.2,0.0500,-46.73,-56.67
980,7852356.3,0.0500,-45.69,-72.05
981,7943282.3,0.0500,-43.77,-91.63
982,8035261.2,0.0500,-42.95,-87.29
983,8128305.2,0.0500,-45.64,-107.59
984,8222426.5,0.0500,-42.18,-74.13
985,8317637.7,0.0500,-41.82,-101.51
986,8413951.4,0.0500,-33.00,-142.51
987,8511380.4,0.0500,-40.49,-127.70
988,8609937.5,0.0500,-47.84,-99.93
989,8709635.9,0.0500,-59.47,175.42
990,8810488.7,0.0500,-48.26,-83.24
991,8912509.4,0.0500,-49.96,-141.37
992,9015711.4,0.0500,-48.01,-95.07
993,9120108.4,0.0500,-44.51,-119.56
994,9225714.3,0.0500,-44.30,-84.40
995,9332543.0,0.0500,-43.42,-73.13
996,9440608.8,0.0500,-45.14,-80.31
997,9549925.9,0.0500,-42.55,-75.12
998,9660508.8,0.0500,-45.83,-85.09
999,9772372.2,0.0500,-41.36,-89.92
1000,9885530.9,0.0500,-46.00,-66.48
1001,10000000.0,0.0500,-42.06,-89.25
